time (s)	coil I (A)	last det (V)	int current (uC)
10278.884810	1.197638	0.153937	518.577209
10278.885761	0.703641	0.153937	1187.740112
10278.886661	0.093376	0.153937	1271.778931
10278.887557	0.091165	0.153937	1353.462402
10278.888444	0.091146	0.153937	1434.309082
10278.889379	0.091307	0.153937	1519.681519
10278.890287	0.091194	0.153937	1602.485596
10278.891193	0.091271	0.153937	1685.176880
10278.892080	0.091249	0.153937	1766.114502
10278.893017	0.091260	0.153937	1851.624878
10278.893926	0.091227	0.153937	1934.550049
10278.894821	0.091238	0.153937	2016.207886
10279.960022	1.223328	0.134734	549.274109
10279.960922	0.714239	0.134734	1192.089600
10279.961810	0.094596	0.134734	1276.090820
10279.962778	0.091234	0.134734	1364.405518
10279.963687	0.091263	0.134734	1447.364014
10279.964587	0.091124	0.134734	1529.375854
10279.965488	0.091208	0.134734	1611.554687
10279.966417	0.091230	0.134734	1696.307739
10279.967318	0.091249	0.134734	1778.522949
10279.968212	0.091154	0.134734	1860.014282
10279.969141	0.091241	0.134734	1944.777588
10279.970048	0.091337	0.134734	2027.619995
10280.999392	1.229839	0.159323	553.427490
10281.000322	0.671206	0.159323	1177.649170
10281.001217	0.093798	0.159323	1261.598022
10281.002149	0.091179	0.159323	1346.577026
10281.003066	0.091263	0.159323	1430.265625
10281.003969	0.091073	0.159323	1512.504517
10281.004860	0.091241	0.159323	1593.800659
10281.005794	0.091256	0.159323	1679.033813
10281.006697	0.091322	0.159323	1761.497559
10281.007593	0.091161	0.159323	1843.177734
10281.008478	0.091055	0.159323	1923.761108
10281.009431	0.091300	0.159323	2010.770020
10282.074568	1.198030	0.141316	519.944885
10282.075519	0.688898	0.141316	1175.086548
10282.076413	0.093464	0.141316	1258.643677
10282.077311	0.091139	0.141316	1340.486450
10282.078199	0.091267	0.141316	1421.531616
10282.079143	0.091362	0.141316	1507.777588
10282.080046	0.091223	0.141316	1590.152100
10282.080942	0.091157	0.141316	1671.828979
10282.081828	0.091077	0.141316	1752.522949
10282.082765	0.091329	0.141316	1838.098511
10282.083676	0.091249	0.141316	1921.226196
10282.084567	0.091198	0.141316	2002.483154
10283.113953	1.216252	0.154517	549.746094
10283.114847	0.705256	0.154517	1180.245239
10283.115789	0.094453	0.154517	1269.220093
10283.116701	0.091201	0.154517	1352.395508
10283.117609	0.091091	0.154517	1435.106445
10283.118498	0.091201	0.154517	1516.184326
10283.119439	0.091318	0.154517	1602.114868
10283.120343	0.091121	0.154517	1684.487915
10283.121236	0.091216	0.154517	1765.943604
10283.122125	0.091154	0.154517	1846.979126
10283.123064	0.091278	0.154517	1932.689209
10283.123957	0.091161	0.154517	2014.095825
10284.188111	1.203530	0.138678	530.756897
10284.189002	0.728683	0.138678	1180.013428
10284.189971	0.093285	0.138678	1270.406494
10284.190862	0.091121	0.138678	1351.594971
10284.191751	0.091274	0.138678	1432.737915
10284.192677	0.091216	0.138678	1517.203735
10284.193606	0.091165	0.138678	1601.895630
10284.194506	0.091014	0.138678	1683.808594
10284.195394	0.091168	0.138678	1764.765991
10284.196318	0.091296	0.138678	1849.123901
10284.197232	0.091121	0.138678	1932.408081
10284.198156	0.091230	0.138678	2016.705078
10285.227496	1.229711	0.162703	560.748108
10285.228398	0.693864	0.162703	1186.613037
10285.229285	0.094178	0.162703	1270.149292
10285.230247	0.091128	0.162703	1357.814331
10285.231145	0.091183	0.162703	1439.696533
10285.232063	0.091161	0.162703	1523.382202
10285.232961	0.091212	0.162703	1605.290771
10285.233900	0.091135	0.162703	1690.866821
10285.234829	0.091201	0.162703	1775.592773
10285.235719	0.091219	0.162703	1856.778076
10285.236657	0.091183	0.162703	1942.307617
10285.237563	0.091230	0.162703	2024.962402
10286.302670	1.207636	0.141228	530.151978
10286.303576	0.720985	0.141228	1183.364502
10286.304464	0.094698	0.141228	1267.456787
10286.305404	0.091245	0.141228	1353.227173
10286.306315	0.091322	0.141228	1436.421509
10286.307216	0.091230	0.141228	1518.620117
10286.308101	0.091293	0.141228	1599.414185
10286.309041	0.091274	0.141228	1685.212158
10286.309954	0.091223	0.141228	1768.498901
10286.310843	0.091198	0.141228	1849.573486
10286.311769	0.091300	0.141228	1934.117310
10286.312671	0.091337	0.141228	2016.502930
10287.342045	1.232776	0.155641	553.516418
10287.342964	0.678329	0.155641	1176.900635
10287.343861	0.093724	0.155641	1260.971436
10287.344765	0.091198	0.155641	1343.413940
10287.345698	0.091293	0.155641	1428.590088
10287.346602	0.091205	0.155641	1511.039307
10287.347497	0.091154	0.155641	1592.621704
10287.348425	0.091150	0.155641	1677.208862
10287.349327	0.091194	0.155641	1759.465698
10287.350230	0.091179	0.155641	1841.800537
10287.351115	0.091216	0.155641	1922.526489
10287.352047	0.091212	0.155641	2007.536255
10288.416235	1.249058	0.146827	582.060852
10288.417137	0.671829	0.146827	1188.050293
10288.418059	0.094014	0.146827	1274.730957
10288.418964	0.091318	0.146827	1357.374023
10288.419866	0.091216	0.146827	1439.650635
10288.420752	0.091271	0.146827	1520.516479
10288.421676	0.091348	0.146827	1604.921753
10288.422578	0.091238	0.146827	1687.218262
10288.423481	0.091212	0.146827	1769.582886
10288.424372	0.091252	0.146827	1850.888794
10288.425316	0.091304	0.146827	1937.079468
10288.426218	0.091355	0.146827	2019.481689
10289.456599	1.216685	0.164234	545.074707
10289.457489	0.723193	0.164234	1188.716797
10289.458447	0.093431	0.164234	1278.224121
10289.459349	0.091179	0.164234	1360.467773
10289.460239	0.091183	0.164234	1441.620483
10289.461125	0.091234	0.164234	1522.453857
10289.462074	0.091263	0.164234	1609.062866
10289.462980	0.091179	0.164234	1691.671265
10289.463877	0.091106	0.164234	1773.393311
10289.464800	0.091245	0.164234	1857.612549
10289.465696	0.091260	0.164234	1939.381348
10289.466590	0.091208	0.164234	2020.921753
10290.530761	1.205577	0.139423	528.042908
10290.531699	0.699012	0.139423	1183.716553
10290.532612	0.093201	0.139423	1268.808838
10290.533515	0.091036	0.139423	1351.014648
10290.534406	0.091205	0.139423	1432.278198
10290.535366	0.091194	0.139423	1519.824341
10290.536270	0.091157	0.139423	1602.230469
10290.537165	0.091179	0.139423	1683.835815
10290.538056	0.091128	0.139423	1765.030762
10290.538996	0.091168	0.139423	1850.728882
10290.539888	0.091073	0.139423	1931.965942
10290.540779	0.091219	0.139423	2013.242554
10291.568092	1.211323	0.153353	551.152039
10291.569041	0.615381	0.153353	1135.148437
10291.569944	0.092948	0.153353	1219.080444
10291.570830	0.091208	0.153353	1299.891113
10291.571756	0.091260	0.153353	1384.397705
10291.572661	0.091176	0.153353	1466.911621
10291.573554	0.091150	0.153353	1548.308472
10291.574439	0.091183	0.153353	1629.005249
10291.575384	0.091241	0.153353	1715.228394
10291.576282	0.091132	0.153353	1797.064575
10291.577186	0.091256	0.153353	1879.560059
10291.578081	0.091267	0.153353	1961.244141
10292.645381	1.252112	0.145873	624.803772
10292.646298	0.611045	0.145873	1185.131958
10292.647226	0.092637	0.145873	1271.098877
10292.648115	0.091117	0.145873	1352.101807
10292.649052	0.091146	0.145873	1437.505859
10292.649954	0.091080	0.145873	1519.660278
10292.650876	0.091128	0.145873	1603.680176
10292.651764	0.091208	0.145873	1684.673340
10292.652722	0.091238	0.145873	1772.079102
10292.653626	0.091194	0.145873	1854.518311
10292.654517	0.091212	0.145873	1935.788330
10292.655436	0.091238	0.145873	2019.635864
10293.681614	1.221317	0.167368	541.043518
10293.682589	0.614912	0.167368	1140.582886
10293.683485	0.092882	0.167368	1223.805176
10293.684371	0.091099	0.167368	1304.518555
10293.685296	0.091282	0.167368	1388.954102
10293.686205	0.091194	0.167368	1471.849365
10293.687121	0.091219	0.167368	1555.406372
10293.688016	0.091146	0.167368	1636.982300
10293.688973	0.091165	0.167368	1724.226807
10293.689878	0.091201	0.167368	1806.763916
10293.690770	0.091219	0.167368	1888.131714
10293.691683	0.091216	0.167368	1971.411743
10294.759895	1.212700	0.139234	540.864258
10294.760792	0.717272	0.139234	1184.257080
10294.761734	0.094578	0.139234	1273.349243
10294.762643	0.091121	0.139234	1356.177856
10294.763563	0.091190	0.139234	1440.072876
10294.764447	0.091172	0.139234	1520.668823
10294.765396	0.091245	0.139234	1607.260498
10294.766295	0.091106	0.139234	1689.164795
10294.767200	0.091176	0.139234	1771.678711
10294.768098	0.091110	0.139234	1853.495117
10294.769049	0.091205	0.139234	1940.230957
10294.769948	0.091201	0.139234	2022.220825
10295.795151	1.211774	0.159384	536.815796
10295.796056	0.712753	0.159384	1181.856934
10295.796944	0.094636	0.159384	1265.893921
10295.797892	0.091289	0.159384	1352.435913
10295.798800	0.091256	0.159384	1435.296387
10295.799692	0.091208	0.159384	1516.654419
10295.800595	0.091282	0.159384	1599.081787
10295.801517	0.091267	0.159384	1683.230103
10295.802425	0.091212	0.159384	1766.050781
10295.803323	0.091293	0.159384	1848.031616
10295.804250	0.091293	0.159384	1932.659912
10295.805156	0.091271	0.159384	2015.351196
10296.875477	1.220266	0.151097	546.679199
10296.876377	0.715635	0.151097	1190.750488
10296.877315	0.094416	0.151097	1279.313110
10296.878226	0.091252	0.151097	1362.444092
10296.879133	0.091212	0.151097	1445.173462
10296.880021	0.091234	0.151097	1526.189331
10296.880959	0.091245	0.151097	1611.777222
10296.881867	0.091223	0.151097	1694.607788
10296.882773	0.091227	0.151097	1777.259277
10296.883659	0.091307	0.151097	1858.157593
10296.884601	0.091208	0.151097	1944.076050
10296.885505	0.091194	0.151097	2026.515259
10297.907678	1.227198	0.167956	555.920898
10297.908605	0.658539	0.167956	1166.386353
10297.909507	0.093358	0.167956	1250.595459
10297.910438	0.091139	0.167956	1335.445801
10297.911360	0.091311	0.167956	1419.634521
10297.912265	0.091198	0.167956	1502.168213
10297.913161	0.091183	0.167956	1583.868042
10297.914106	0.091241	0.167956	1670.091187
10297.915000	0.091256	0.167956	1751.674194
10297.915896	0.091241	0.167956	1833.426514
10297.916780	0.091146	0.167956	1913.999756
10297.917713	0.091337	0.167956	1999.216919
10298.989003	1.203406	0.140737	527.091736
10298.989900	0.729624	0.140737	1181.564453
10298.990863	0.093153	0.140737	1271.270874
10298.991760	0.091216	0.140737	1353.091431
10298.992658	0.091190	0.140737	1434.980225
10298.993541	0.091223	0.140737	1515.530273
10298.994486	0.091252	0.140737	1601.763794
10298.995389	0.091124	0.140737	1684.048950
10298.996289	0.091227	0.140737	1766.153076
10298.997214	0.091267	0.140737	1850.575195
10298.998121	0.091263	0.140737	1933.351074
10298.999017	0.091179	0.140737	2015.047607
10300.021216	1.227927	0.154336	550.111389
10300.022126	0.706377	0.154336	1192.914429
10300.023008	0.094435	0.154336	1276.205933
10300.023956	0.091161	0.154336	1362.626465
10300.024866	0.091165	0.154336	1445.586182
10300.025759	0.091165	0.154336	1526.996094
10300.026649	0.091194	0.154336	1608.158569
10300.027591	0.091260	0.154336	1694.125244
10300.028499	0.091121	0.154336	1776.862793
10300.029393	0.091216	0.154336	1858.409790
10300.030320	0.091187	0.154336	1942.939697
10300.031218	0.091238	0.154336	2024.871216
10301.103561	1.211528	0.152576	533.072449
10301.104536	0.614967	0.152576	1132.665283
10301.105431	0.092838	0.152576	1215.755371
10301.106325	0.091223	0.152576	1297.308838
10301.107253	0.091205	0.152576	1381.946899
10301.108173	0.091194	0.152576	1465.845215
10301.109079	0.091194	0.152576	1548.466797
10301.109968	0.091132	0.152576	1629.482788
10301.110914	0.091252	0.152576	1715.807617
10301.111821	0.091187	0.152576	1798.513794
10301.112718	0.091238	0.152576	1880.354126
10301.113606	0.091176	0.152576	1961.317993
10302.134752	1.229513	0.163464	549.592285
10302.135672	0.664347	0.163464	1160.791504
10302.136608	0.092864	0.163464	1247.712036
10302.137500	0.091154	0.163464	1329.020996
10302.138468	0.091143	0.163464	1417.247070
10302.139365	0.091278	0.163464	1499.123535
10302.140253	0.091216	0.163464	1580.123169
10302.141192	0.091150	0.163464	1665.712891
10302.142097	0.091146	0.163464	1748.200195
10302.143004	0.091249	0.163464	1830.962891
10302.143898	0.091077	0.163464	1912.385376
10302.144844	0.091205	0.163464	1998.665161
10303.218141	1.225268	0.145836	553.821350
10303.219046	0.695933	0.145836	1183.640381
10303.219984	0.094274	0.145836	1272.069092
10303.220885	0.091271	0.145836	1354.304077
10303.221791	0.091212	0.145836	1436.942261
10303.222680	0.091201	0.145836	1518.020142
10303.223613	0.091198	0.145836	1603.107422
10303.224516	0.091216	0.145836	1685.475342
10303.225424	0.091230	0.145836	1768.312622
10303.226314	0.091165	0.145836	1849.449097
10303.227255	0.091282	0.145836	1935.345215
10303.228155	0.091252	0.145836	2017.472412
10304.247261	1.223606	0.158244	549.399109
10304.248194	0.665673	0.158244	1170.471680
10304.249081	0.093596	0.158244	1253.491455
10304.250002	0.091205	0.158244	1337.491089
10304.250904	0.091212	0.158244	1419.764404
10304.251806	0.091128	0.158244	1501.961792
10304.252695	0.091260	0.158244	1583.091675
10304.253648	0.091329	0.158244	1670.128540
10304.254545	0.091208	0.158244	1751.942505
10304.255446	0.091198	0.158244	1834.111450
10304.256332	0.091278	0.158244	1914.983887
10304.257267	0.091340	0.158244	2000.387085
10305.332683	1.209027	0.155287	530.762939
10305.333650	0.613381	0.155287	1123.902710
10305.334564	0.092897	0.155287	1208.810303
10305.335460	0.091099	0.155287	1290.434692
10305.336390	0.091238	0.155287	1375.285889
10305.337300	0.091278	0.155287	1458.348877
10305.338207	0.091190	0.155287	1541.058350
10305.339101	0.091121	0.155287	1622.520142
10305.340038	0.091223	0.155287	1707.996216
10305.340940	0.091289	0.155287	1790.338989
10305.341831	0.091230	0.155287	1871.625366
10305.342719	0.091205	0.155287	1952.615234
10306.361818	1.221028	0.163380	551.904602
10306.362717	0.704769	0.163380	1185.492187
10306.363664	0.093959	0.163380	1274.471069
10306.364567	0.091106	0.163380	1356.739746
10306.365466	0.091198	0.163380	1438.726318
10306.366356	0.091183	0.163380	1519.879028
10306.367301	0.091208	0.163380	1606.071045
10306.368193	0.091172	0.163380	1687.396362
10306.369082	0.091216	0.163380	1768.487183
10306.369993	0.091293	0.163380	1851.654907
10306.370914	0.091249	0.163380	1935.695068
10306.371816	0.091135	0.163380	2017.899048
10307.446219	1.212015	0.149639	535.710815
10307.447184	0.622731	0.149639	1136.645996
10307.448083	0.093212	0.149639	1220.443237
10307.448970	0.091102	0.149639	1301.250977
10307.449892	0.091091	0.149639	1385.237183
10307.450826	0.091187	0.149639	1470.405396
10307.451728	0.091194	0.149639	1552.662231
10307.452617	0.091223	0.149639	1633.759644
10307.453554	0.091238	0.149639	1719.249512
10307.454469	0.091205	0.149639	1802.701904
10307.455366	0.091238	0.149639	1884.542236
10307.456250	0.091212	0.149639	1965.173828
10308.476360	1.196876	0.160282	518.247375
10308.477320	0.646783	0.160282	1139.159424
10308.478225	0.093329	0.160282	1223.622070
10308.479139	0.091263	0.160282	1307.036865
10308.480032	0.091194	0.160282	1388.473022
10308.480990	0.091011	0.160282	1475.661377
10308.481886	0.091249	0.160282	1557.420288
10308.482775	0.091208	0.160282	1638.504639
10308.483707	0.091282	0.160282	1723.579224
10308.484612	0.091179	0.160282	1806.096436
10308.485528	0.091227	0.160282	1889.660156
10308.486413	0.091157	0.160282	1970.334351
10309.559753	1.196440	0.153736	518.058716
10309.560698	0.706099	0.153736	1185.321899
10309.561612	0.093182	0.153736	1270.490601
10309.562540	0.091106	0.153736	1355.036987
10309.563429	0.091190	0.153736	1436.105103
10309.564387	0.091132	0.153736	1523.409180
10309.565281	0.091110	0.153736	1604.861206
10309.566196	0.091296	0.153736	1688.397461
10309.567090	0.091183	0.153736	1769.914917
10309.568045	0.091157	0.153736	1856.970093
10309.568968	0.091282	0.153736	1941.223145
10309.569864	0.091219	0.153736	2022.955811
10310.590945	1.233691	0.161962	563.796997
10310.591840	0.703323	0.161962	1193.270752
10310.592786	0.093970	0.161962	1282.166138
10310.593686	0.091146	0.161962	1364.197754
10310.594588	0.091172	0.161962	1446.434814
10310.595472	0.091139	0.161962	1527.001587
10310.596411	0.091245	0.161962	1612.680786
10310.597322	0.091165	0.161962	1695.731689
10310.598215	0.091143	0.161962	1777.122070
10310.599127	0.091311	0.161962	1860.397705
10310.600051	0.091208	0.161962	1944.674316
10310.600954	0.091124	0.161962	2026.959473
10311.673308	1.219567	0.154811	543.926697
10311.674237	0.684675	0.154811	1179.989990
10311.675130	0.093647	0.154811	1263.617187
10311.676065	0.091230	0.154811	1348.917725
10311.676974	0.091289	0.154811	1431.899536
10311.677878	0.091234	0.154811	1514.375244
10311.678768	0.091187	0.154811	1595.531250
10311.679723	0.091267	0.154811	1682.691284
10311.680621	0.091271	0.154811	1764.652466
10311.681516	0.091176	0.154811	1846.254639
10311.682446	0.091249	0.154811	1931.115967
10311.683352	0.091263	0.154811	2013.800659
10312.705486	1.226905	0.161660	542.292236
10312.706475	0.571000	0.161660	1107.010986
10312.707379	0.092571	0.161660	1190.694946
10312.708273	0.091183	0.161660	1272.212402
10312.709210	0.091285	0.161660	1357.746826
10312.710117	0.091154	0.161660	1440.423096
10312.711017	0.091198	0.161660	1522.500854
10312.711906	0.091205	0.161660	1603.581909
10312.712839	0.091227	0.161660	1688.696533
10312.713738	0.091252	0.161660	1770.732422
10312.714631	0.091168	0.161660	1852.145630
10312.715532	0.091198	0.161660	1934.314575
10313.786831	1.210437	0.156040	532.592285
10313.787741	0.710442	0.156040	1179.094482
10313.788627	0.094596	0.156040	1262.906494
10313.789579	0.091205	0.156040	1349.733521
10313.790484	0.091315	0.156040	1432.373291
10313.791374	0.091165	0.156040	1513.509766
10313.792300	0.091208	0.156040	1597.968872
10313.793209	0.091252	0.156040	1680.917358
10313.794110	0.091150	0.156040	1763.043457
10313.794999	0.091121	0.156040	1844.049683
10313.795928	0.091278	0.156040	1928.847046
10313.796836	0.091238	0.156040	2011.690918
10314.820075	1.252753	0.160652	587.541016
10314.820979	0.666460	0.160652	1190.020752
10314.821863	0.093937	0.160652	1273.060791
10314.822826	0.091172	0.160652	1360.859253
10314.823727	0.091230	0.160652	1443.057861
10314.824622	0.091212	0.160652	1524.692749
10314.825553	0.091223	0.160652	1609.621460
10314.826459	0.091307	0.160652	1692.345947
10314.827356	0.091205	0.160652	1774.156738
10314.828244	0.091219	0.160652	1855.159668
10314.829201	0.091333	0.160652	1942.565308
10314.830100	0.091278	0.160652	2024.624268
10315.899352	1.220735	0.158477	539.564819
10315.900283	0.665717	0.158477	1159.346924
10315.901181	0.093512	0.158477	1243.320679
10315.902109	0.091187	0.158477	1327.941772
10315.903013	0.091333	0.158477	1410.506836
10315.903916	0.091238	0.158477	1492.894531
10315.904803	0.091168	0.158477	1573.760742
10315.905757	0.091373	0.158477	1660.930908
10315.906660	0.091219	0.158477	1743.302124
10315.907555	0.091245	0.158477	1824.966553
10315.908437	0.091234	0.158477	1905.435059
10315.909368	0.091355	0.158477	1990.486572
10316.934601	1.208207	0.161454	529.194580
10316.935559	0.644224	0.161454	1146.360840
10316.936477	0.092977	0.161454	1231.713989
10316.937383	0.091194	0.161454	1314.335571
10316.938272	0.091238	0.161454	1395.445923
10316.939214	0.091311	0.161454	1481.460937
10316.940123	0.091293	0.161454	1564.446045
10316.941013	0.091307	0.161454	1645.709595
10316.941948	0.091212	0.161454	1730.992920
10316.942844	0.091271	0.161454	1812.771484
10316.943743	0.091135	0.161454	1894.702026
10316.944628	0.091161	0.161454	1975.379395
10318.012894	1.231077	0.159641	551.522339
10318.013810	0.689769	0.159641	1183.351074
10318.014699	0.094014	0.159641	1266.929199
10318.015656	0.091260	0.159641	1354.264771
10318.016561	0.091263	0.159641	1436.858154
10318.017453	0.091187	0.159641	1518.196533
10318.018346	0.091161	0.159641	1599.603149
10318.019282	0.091366	0.159641	1685.121704
10318.020193	0.091227	0.159641	1768.229370
10318.021088	0.091194	0.159641	1849.847900
10318.021975	0.091307	0.159641	1930.837524
10318.022919	0.091315	0.159641	2017.038574
10319.049191	1.233398	0.156954	558.729492
10319.050120	0.665691	0.156954	1177.156250
10319.051009	0.093724	0.156954	1260.477173
10319.051953	0.091252	0.156954	1346.619507
10319.052849	0.091245	0.156954	1428.375122
10319.053754	0.091128	0.156954	1510.845947
10319.054641	0.091234	0.156954	1591.770630
10319.055590	0.091267	0.156954	1678.383057
10319.056497	0.091227	0.156954	1761.125732
10319.057392	0.091278	0.156954	1842.819580
10319.058300	0.091249	0.156954	1925.673462
10319.059210	0.091208	0.156954	2008.673218
10320.125401	1.218453	0.162723	538.556335
10320.126323	0.678003	0.162723	1163.675049
10320.127226	0.093494	0.162723	1248.099854
10320.128133	0.091146	0.162723	1330.769531
10320.129060	0.091238	0.162723	1415.346924
10320.129964	0.091117	0.162723	1497.716675
10320.130859	0.091241	0.162723	1579.377808
10320.131789	0.091227	0.162723	1664.218750
10320.132690	0.091263	0.162723	1746.447144
10320.133586	0.091205	0.162723	1828.166626
10320.134475	0.091208	0.162723	1909.250977
10320.135407	0.091201	0.162723	1994.250488
10321.163726	1.206914	0.163219	531.042175
10321.164619	0.717777	0.163219	1172.017090
10321.165579	0.093270	0.163219	1261.556519
10321.166493	0.091095	0.163219	1344.817383
10321.167390	0.091117	0.163219	1426.549316
10321.168319	0.091256	0.163219	1511.326172
10321.169217	0.091285	0.163219	1593.300415
10321.170116	0.091300	0.163219	1675.379150
10321.171001	0.091187	0.163219	1756.079224
10321.171942	0.091249	0.163219	1841.944336
10321.172844	0.091190	0.163219	1924.197876
10321.173742	0.091238	0.163219	2006.129395
10322.238942	1.225349	0.161091	548.956421
10322.239870	0.669305	0.161091	1170.071899
10322.240760	0.093691	0.161091	1253.457275
10322.241692	0.091304	0.161091	1338.552368
10322.242590	0.091150	0.161091	1420.405029
10322.243487	0.091201	0.161091	1502.212524
10322.244377	0.091165	0.161091	1583.348999
10322.245322	0.091088	0.161091	1669.426880
10322.246225	0.091187	0.161091	1751.768311
10322.247126	0.091154	0.161091	1833.897705
10322.248050	0.091201	0.161091	1918.167603
10322.248955	0.091201	0.161091	2000.704712
10323.278349	1.287748	0.160213	642.586182
10323.279269	0.595437	0.160213	1190.388184
10323.280168	0.092695	0.160213	1273.721313
10323.281051	0.091187	0.160213	1354.239014
10323.281990	0.091194	0.160213	1439.869995
10323.282900	0.091216	0.160213	1522.876343
10323.283799	0.091179	0.160213	1604.846436
10323.284727	0.091198	0.160213	1689.477783
10323.285625	0.091205	0.160213	1771.379761
10323.286524	0.091157	0.160213	1853.330078
10323.287410	0.091187	0.160213	1934.121338
10323.288364	0.091293	0.160213	2021.214600
10324.353486	1.200352	0.158908	523.353271
10324.354383	0.731785	0.158908	1179.764160
10324.355336	0.093519	0.158908	1268.888062
10324.356241	0.091176	0.158908	1351.401978
10324.357138	0.091198	0.158908	1433.206177
10324.358028	0.091304	0.158908	1514.466431
10324.358974	0.091234	0.158908	1600.773926
10324.359862	0.091227	0.158908	1681.783325
10324.360753	0.091219	0.158908	1763.059937
10324.361686	0.091124	0.158908	1848.078857
10324.362597	0.091245	0.158908	1931.203125
10324.363497	0.091117	0.158908	2013.208374
10325.391821	1.219644	0.160371	534.203918
10325.392802	0.588966	0.160371	1111.979614
10325.393701	0.092787	0.160371	1195.395020
10325.394590	0.091219	0.160371	1276.489136
10325.395527	0.091227	0.160371	1361.968628
10325.396424	0.091249	0.160371	1443.818848
10325.397335	0.091139	0.160371	1526.846436
10325.398236	0.091168	0.160371	1608.989014
10325.399175	0.091234	0.160371	1694.657837
10325.400074	0.091132	0.160371	1776.585083
10325.400962	0.091176	0.160371	1857.548950
10325.401879	0.091300	0.160371	1941.271118
10326.467017	1.197429	0.161615	519.684326
10326.467987	0.644275	0.161615	1144.630981
10326.468881	0.093365	0.161615	1228.099731
10326.469780	0.091172	0.161615	1310.063232
10326.470670	0.091095	0.161615	1391.137695
10326.471618	0.091176	0.161615	1477.572144
10326.472531	0.091157	0.161615	1560.798706
10326.473429	0.091154	0.161615	1642.654663
10326.474357	0.091296	0.161615	1727.377686
10326.475261	0.091260	0.161615	1809.876465
10326.476157	0.091238	0.161615	1891.625488
10326.477044	0.091198	0.161615	1972.517700
10327.505359	1.212437	0.162252	535.896973
10327.506263	0.717792	0.162252	1184.780762
10327.507148	0.094691	0.162252	1268.582397
10327.508116	0.091205	0.162252	1356.868652
10327.509028	0.091044	0.162252	1439.900513
10327.509930	0.091216	0.162252	1522.177246
10327.510849	0.091245	0.162252	1606.031494
10327.511745	0.091282	0.162252	1687.819946
10327.512651	0.091201	0.162252	1770.448242
10327.513546	0.091121	0.162252	1852.001221
10327.514483	0.091198	0.162252	1937.453247
10327.515390	0.091157	0.162252	2020.132812
10328.581593	1.218669	0.162147	539.870544
10328.582523	0.685693	0.162147	1177.565308
10328.583416	0.094054	0.162147	1261.555542
10328.584352	0.091190	0.162147	1346.909546
10328.585251	0.091227	0.162147	1428.922485
10328.586148	0.091223	0.162147	1510.749634
10328.587039	0.091172	0.162147	1591.983765
10328.587975	0.091241	0.162147	1677.385742
10328.588887	0.091293	0.162147	1760.644653
10328.589787	0.091227	0.162147	1842.748779
10328.590706	0.091135	0.162147	1926.502075
10328.591613	0.091201	0.162147	2009.221558
10329.619914	1.202849	0.162610	525.645081
10329.620889	0.635076	0.162610	1144.843872
10329.621792	0.092963	0.162610	1228.789185
10329.622692	0.091157	0.162610	1310.830688
10329.623575	0.091241	0.162610	1391.396851
10329.624511	0.091333	0.162610	1476.884521
10329.625425	0.091208	0.162610	1560.249023
10329.626324	0.091143	0.162610	1642.186157
10329.627233	0.091238	0.162610	1725.121338
10329.628157	0.091241	0.162610	1809.428467
10329.629064	0.091212	0.162610	1892.157837
10329.629955	0.091333	0.162610	1973.535522
10330.697159	1.203047	0.160374	525.731445
10330.698122	0.623075	0.160374	1125.752686
10330.699044	0.092798	0.160374	1211.312256
10330.699939	0.091267	0.160374	1292.996338
10330.700826	0.091271	0.160374	1373.953491
10330.701772	0.091198	0.160374	1460.226318
10330.702671	0.091311	0.160374	1542.314941
10330.703563	0.091300	0.160374	1623.754639
10330.704506	0.091241	0.160374	1709.795288
10330.705414	0.091245	0.160374	1792.645874
10330.706304	0.091267	0.160374	1873.873535
10330.707193	0.091168	0.160374	1954.922119
10331.732439	1.207266	0.165648	542.062256
10331.733340	0.712306	0.165648	1183.849854
10331.734231	0.094519	0.165648	1268.066284
10331.735183	0.091128	0.165648	1354.820068
10331.736084	0.091198	0.165648	1436.989014
10331.736972	0.091208	0.165648	1517.982178
10331.737884	0.091212	0.165648	1601.167725
10331.738796	0.091176	0.165648	1684.319824
10331.739694	0.091121	0.165648	1766.146118
10331.740586	0.091168	0.165648	1847.468140
10331.741508	0.091249	0.165648	1931.599487
10331.742411	0.091132	0.165648	2013.891357
10332.810696	1.197546	0.160507	520.932678
10332.811653	0.699547	0.160507	1190.399292
10332.812563	0.093204	0.160507	1275.215210
10332.813474	0.091069	0.160507	1358.179321
10332.814373	0.091201	0.160507	1440.169189
10332.815338	0.091227	0.160507	1528.203003
10332.816238	0.091198	0.160507	1610.280762
10332.817160	0.091113	0.160507	1694.287231
10332.818052	0.091106	0.160507	1775.553711
10332.818996	0.091216	0.160507	1861.661499
10332.819916	0.091238	0.160507	1945.600220
10332.820806	0.091128	0.160507	2026.704102
10333.845962	1.198685	0.170538	525.024170
10333.846926	0.688495	0.170538	1188.733154
10333.847828	0.093025	0.170538	1272.641602
10333.848727	0.091190	0.170538	1354.621582
10333.849616	0.091256	0.170538	1435.748291
10333.850549	0.091260	0.170538	1520.893677
10333.851464	0.091256	0.170538	1604.393066
10333.852368	0.091124	0.170538	1686.769409
10333.853255	0.091219	0.170538	1767.681152
10333.854194	0.091278	0.170538	1853.391235
10333.855104	0.091088	0.170538	1936.281006
10333.855999	0.091179	0.170538	2017.886353
10334.926282	1.206753	0.159456	530.971252
10334.927255	0.599919	0.159456	1114.692871
10334.928168	0.092772	0.159456	1199.393921
10334.929069	0.091179	0.159456	1281.546387
10334.929963	0.091223	0.159456	1363.099854
10334.930901	0.091318	0.159456	1448.756470
10334.931807	0.091227	0.159456	1531.407959
10334.932697	0.091080	0.159456	1612.469482
10334.933634	0.091329	0.159456	1698.045044
10334.934527	0.091289	0.159456	1779.566162
10334.935430	0.091121	0.159456	1861.848022
10334.936318	0.091176	0.159456	1942.811890
10335.959499	1.198553	0.166300	523.767883
10335.960460	0.626151	0.166300	1125.499146
10335.961358	0.093358	0.166300	1209.334717
10335.962258	0.091183	0.166300	1291.399292
10335.963143	0.091263	0.166300	1372.167480
10335.964088	0.091282	0.166300	1458.428711
10335.964995	0.091124	0.166300	1541.078369
10335.965882	0.091278	0.166300	1622.041992
10335.966826	0.091267	0.166300	1708.198120
10335.967728	0.091296	0.166300	1790.547485
10335.968628	0.091179	0.166300	1872.608765
10335.969517	0.091165	0.166300	1953.654053
10337.040870	1.229619	0.161897	560.706360
10337.041785	0.690223	0.161897	1192.260742
10337.042672	0.093981	0.161897	1275.621582
10337.043583	0.091187	0.161897	1358.692505
10337.044520	0.091293	0.161897	1444.233765
10337.045421	0.091190	0.161897	1526.396118
10337.046311	0.091124	0.161897	1607.496704
10337.047238	0.091146	0.161897	1691.989258
10337.048151	0.091154	0.161897	1775.212402
10337.049052	0.091219	0.161897	1857.401123
10337.049942	0.091223	0.161897	1938.589722
10337.050880	0.091245	0.161897	2024.177612
10338.073040	1.211056	0.168455	536.497803
10338.073933	0.727072	0.168455	1185.772705
10338.074883	0.093340	0.168455	1274.445557
10338.075792	0.091121	0.168455	1357.274170
10338.076716	0.091249	0.168455	1441.588013
10338.077602	0.091135	0.168455	1522.333862
10338.078558	0.091176	0.168455	1609.497681
10338.079481	0.091165	0.168455	1693.642578
10338.080370	0.091201	0.168455	1774.720459
10338.081320	0.091077	0.168455	1861.243286
10338.082232	0.091102	0.168455	1944.328613
10338.083144	0.091168	0.168455	2027.473999
10339.155403	1.206504	0.161857	528.448669
10339.156353	0.699163	0.161857	1192.653076
10339.157272	0.093043	0.161857	1278.159790
10339.158174	0.091172	0.161857	1360.396851
10339.159067	0.091241	0.161857	1441.875488
10339.159998	0.091230	0.161857	1526.811035
10339.160896	0.091289	0.161857	1608.788574
10339.161792	0.091183	0.161857	1690.488403
10339.162680	0.091099	0.161857	1771.384033
10339.163606	0.091230	0.161857	1855.863403
10339.164513	0.091146	0.161857	1938.533081
10339.165413	0.091256	0.161857	2020.663574
10340.187609	1.229370	0.170619	553.216553
10340.188522	0.687755	0.170619	1181.136963
10340.189405	0.094178	0.170619	1264.296509
10340.190365	0.091190	0.170619	1351.839111
10340.191275	0.091139	0.170619	1434.775513
10340.192165	0.091124	0.170619	1515.876099
10340.193101	0.091205	0.170619	1601.243774
10340.194007	0.091227	0.170619	1683.895264
10340.194907	0.091099	0.170619	1765.884033
10340.195799	0.091187	0.170619	1847.222412
10340.196756	0.091230	0.170619	1934.530029
10340.197654	0.091201	0.170619	2016.428711
10341.269978	1.217311	0.164125	544.137939
10341.270897	0.682386	0.164125	1171.251099
10341.271795	0.093772	0.164125	1255.458374
10341.272698	0.091121	0.164125	1337.740234
10341.273631	0.091267	0.164125	1422.892456
10341.274542	0.091223	0.164125	1505.996704
10341.275438	0.091256	0.164125	1587.762207
10341.276361	0.091296	0.164125	1672.028809
10341.277257	0.091278	0.164125	1753.813965
10341.278148	0.091252	0.164125	1835.119873
10341.279035	0.091201	0.164125	1916.015259
10341.279960	0.091322	0.164125	2000.488159
10342.301139	1.216868	0.172778	540.289185
10342.302046	0.702902	0.172778	1177.820923
10342.302938	0.094292	0.172778	1261.929443
10342.303876	0.091168	0.172778	1347.445190
10342.304788	0.091088	0.172778	1430.517090
10342.305707	0.091198	0.172778	1514.327637
10342.306598	0.091135	0.172778	1595.529175
10342.307546	0.091234	0.172778	1682.019165
10342.308439	0.091198	0.172778	1763.458496
10342.309326	0.091190	0.172778	1844.344238
10342.310263	0.091183	0.172778	1929.782593
10342.311182	0.091157	0.172778	2013.556030
10343.384538	1.219215	0.161583	546.208313
10343.385431	0.719736	0.161583	1188.932861
10343.386394	0.093127	0.161583	1278.614624
10343.387298	0.091165	0.161583	1361.027344
10343.388194	0.091256	0.161583	1442.792847
10343.389085	0.091146	0.161583	1524.004150
10343.390024	0.091256	0.161583	1609.693604
10343.390927	0.091143	0.161583	1691.995361
10343.391821	0.091121	0.161583	1773.457153
10343.392750	0.091249	0.161583	1858.227295
10343.393663	0.091230	0.161583	1941.520752
10343.394565	0.091216	0.161583	2023.797363
10344.415694	1.217666	0.173164	538.208374
10344.416673	0.600967	0.173164	1126.554932
10344.417583	0.092703	0.173164	1210.914307
10344.418470	0.091190	0.173164	1291.800049
10344.419403	0.091219	0.173164	1376.907837
10344.420309	0.091157	0.173164	1459.496338
10344.421205	0.091154	0.173164	1541.169922
10344.422096	0.091172	0.173164	1622.404053
10344.423050	0.091300	0.173164	1709.504272
10344.423956	0.091271	0.173164	1792.195557
10344.424852	0.091088	0.173164	1873.810059
10344.425763	0.091219	0.173164	1956.911011
10345.498056	1.197147	0.162667	520.759033
10345.498979	0.722029	0.162667	1187.191650
10345.499907	0.093351	0.162667	1273.821167
10345.500818	0.091176	0.162667	1356.882080
10345.501714	0.091179	0.162667	1438.578613
10345.502643	0.091190	0.162667	1523.294312
10345.503545	0.091223	0.162667	1605.577637
10345.504445	0.091143	0.162667	1687.605957
10345.505329	0.091168	0.162667	1768.198608
10345.506260	0.091187	0.162667	1853.093262
10345.507157	0.091179	0.162667	1934.880981
10345.508053	0.091069	0.162667	2016.479126
10346.529276	1.274963	0.174768	623.457092
10346.530205	0.586113	0.174768	1167.956299
10346.531107	0.092743	0.174768	1251.610352
10346.531994	0.091190	0.174768	1332.496094
10346.532944	0.091355	0.174768	1419.283325
10346.533852	0.091183	0.174768	1502.077393
10346.534740	0.091212	0.174768	1583.073730
10346.535680	0.091315	0.174768	1668.909546
10346.536576	0.091421	0.174768	1750.822632
10346.537478	0.091113	0.174768	1833.006836
10346.538365	0.091150	0.174768	1913.856812
10346.539322	0.091326	0.174768	2001.255493
10347.610598	1.237478	0.159081	568.002380
10347.611501	0.684067	0.159081	1185.715210
10347.612385	0.094186	0.159081	1268.975464
10347.613335	0.091256	0.159081	1355.668701
10347.614227	0.091069	0.159081	1436.902588
10347.615113	0.091256	0.159081	1517.755493
10347.616053	0.091260	0.159081	1603.539673
10347.616965	0.091285	0.159081	1686.791992
10347.617868	0.091198	0.159081	1769.143311
10347.618757	0.091212	0.159081	1850.230957
10347.619700	0.091238	0.159081	1936.268188
10347.620606	0.091230	0.159081	2018.922974
10348.644814	1.203622	0.176552	528.390015
10348.645799	0.605365	0.176552	1124.674561
10348.646693	0.092985	0.176552	1207.802856
10348.647593	0.091150	0.176552	1289.837769
10348.648479	0.091219	0.176552	1370.658203
10348.649439	0.091230	0.176552	1458.239502
10348.650349	0.091165	0.176552	1541.199219
10348.651246	0.091201	0.176552	1623.006714
10348.652174	0.091289	0.176552	1707.723022
10348.653075	0.091227	0.176552	1789.918335
10348.653972	0.091176	0.176552	1871.702759
10348.654861	0.091208	0.176552	1952.787109
10349.724105	1.198085	0.159899	521.166870
10349.724997	0.730979	0.159899	1173.200195
10349.725977	0.092941	0.159899	1264.282104
10349.726883	0.091146	0.159899	1346.860596
10349.727777	0.091252	0.159899	1428.440308
10349.728708	0.091318	0.159899	1513.457764
10349.729606	0.091296	0.159899	1595.441895
10349.730502	0.091190	0.159899	1677.148315
10349.731384	0.091245	0.159899	1757.626465
10349.732321	0.091289	0.159899	1843.164307
10349.733221	0.091208	0.159899	1925.251953
10349.734125	0.091095	0.159899	2007.601807
10350.759380	1.215872	0.177942	541.062866
10350.760298	0.687781	0.177942	1172.445557
10350.761201	0.093798	0.177942	1257.144775
10350.762129	0.091234	0.177942	1341.810059
10350.763028	0.091293	0.177942	1423.882202
10350.763925	0.091172	0.177942	1505.663330
10350.764813	0.091176	0.177942	1586.627197
10350.765738	0.091293	0.177942	1671.072998
10350.766645	0.091293	0.177942	1753.875488
10350.767537	0.091293	0.177942	1835.308594
10350.768455	0.091176	0.177942	1919.007690
10350.769372	0.091282	0.177942	2002.713013
10351.837657	1.210704	0.165885	543.606323
10351.838552	0.711086	0.165885	1180.028687
10351.839505	0.093365	0.165885	1269.005981
10351.840396	0.091285	0.165885	1350.341309
10351.841284	0.091179	0.165885	1431.308472
10351.842214	0.091271	0.165885	1516.190308
10351.843123	0.091282	0.165885	1599.165405
10351.844034	0.091146	0.165885	1682.199585
10351.844918	0.091201	0.165885	1762.821411
10351.845863	0.091179	0.165885	1848.985718
10351.846774	0.091139	0.165885	1932.013306
10351.847672	0.091278	0.165885	2013.980957
10352.873936	1.215648	0.176145	542.179077
10352.874835	0.693149	0.176145	1165.320312
10352.875803	0.092838	0.176145	1255.187622
10352.876718	0.091176	0.176145	1338.613281
10352.877612	0.091168	0.176145	1420.117676
10352.878537	0.091227	0.176145	1504.502441
10352.879443	0.091216	0.176145	1587.143921
10352.880345	0.091271	0.176145	1669.470093
10352.881236	0.091172	0.176145	1750.704224
10352.882183	0.091260	0.176145	1837.127197
10352.883089	0.091315	0.176145	1919.858276
10352.883982	0.091194	0.176145	2001.294434
10353.951181	1.214696	0.161204	538.110352
10353.952162	0.577617	0.161204	1104.752808
10353.953071	0.092585	0.161204	1188.912964
10353.953972	0.091241	0.161204	1271.121460
10353.954897	0.091238	0.161204	1355.516357
10353.955797	0.091260	0.161204	1437.650146
10353.956703	0.091201	0.161204	1520.278442
10353.957593	0.091117	0.161204	1601.372559
10353.958521	0.091212	0.161204	1686.017456
10353.959428	0.091274	0.161204	1768.803345
10353.960327	0.091223	0.161204	1850.812988
10353.961216	0.091223	0.161204	1931.910400
10354.988525	1.250175	0.178546	581.331238
10354.989443	0.648036	0.178546	1176.228149
10354.990344	0.093464	0.178546	1260.439575
10354.991231	0.091157	0.178546	1341.296021
10354.992178	0.091252	0.178546	1427.712036
10354.993088	0.091135	0.178546	1510.645142
10354.993976	0.091241	0.178546	1591.667603
10354.994904	0.091285	0.178546	1676.380493
10354.995813	0.091179	0.178546	1759.262329
10354.996710	0.091150	0.178546	1841.023804
10354.997597	0.091234	0.178546	1921.948486
10354.998544	0.091271	0.178546	2008.381836
10356.063707	1.213308	0.163666	549.628540
10356.064602	0.707032	0.163666	1182.422607
10356.065539	0.094281	0.163666	1270.763916
10356.066458	0.091252	0.163666	1354.624878
10356.067365	0.091146	0.163666	1437.294556
10356.068254	0.091113	0.163666	1518.294312
10356.069185	0.091176	0.163666	1603.178711
10356.070098	0.091304	0.163666	1686.538940
10356.071014	0.091179	0.163666	1770.059082
10356.071903	0.091161	0.163666	1851.101074
10356.072856	0.091161	0.163666	1937.977417
10356.073750	0.091219	0.163666	2019.527588
10357.103069	1.233556	0.178433	561.267944
10357.103967	0.699397	0.178433	1189.326416
10357.104911	0.093340	0.178433	1277.439209
10357.105820	0.091099	0.178433	1360.247925
10357.106726	0.091121	0.178433	1442.803223
10357.107615	0.091205	0.178433	1523.884277
10357.108558	0.091208	0.178433	1609.893921
10357.109468	0.091234	0.178433	1692.916992
10357.110358	0.091201	0.178433	1774.086060
10357.111304	0.091234	0.178433	1860.393555
10357.112206	0.091245	0.178433	1942.696655
10357.113111	0.091241	0.178433	2025.270142
10358.177234	1.210133	0.164242	538.509216
10358.178217	0.586000	0.164242	1114.546997
10358.179113	0.092864	0.164242	1197.752930
10358.180011	0.091102	0.164242	1279.562744
10358.180896	0.091172	0.164242	1360.249878
10358.181848	0.091234	0.164242	1447.104736
10358.182753	0.091150	0.164242	1529.595459
10358.183653	0.091165	0.164242	1611.643555
10358.184585	0.091150	0.164242	1696.595215
10358.185484	0.091300	0.164242	1778.673950
10358.186388	0.091150	0.164242	1861.073486
10358.187280	0.091249	0.164242	1942.467407
10359.217650	1.221958	0.177584	584.095886
10359.218578	0.619988	0.177584	1159.444580
10359.219488	0.093021	0.177584	1244.093872
10359.220378	0.091172	0.177584	1325.236816
10359.221325	0.091238	0.177584	1411.639038
10359.222214	0.091168	0.177584	1492.687622
10359.223110	0.091176	0.177584	1574.380859
10359.223997	0.091157	0.177584	1655.237305
10359.224947	0.091252	0.177584	1741.927124
10359.225851	0.091135	0.177584	1824.313354
10359.226748	0.091168	0.177584	1906.091187
10359.227669	0.091227	0.177584	1990.111084
10360.290758	1.197726	0.163891	523.406189
10360.291650	0.740727	0.163891	1184.135132
10360.292599	0.093549	0.163891	1272.912720
10360.293523	0.091183	0.163891	1357.165649
10360.294450	0.091091	0.163891	1441.607300
10360.295335	0.091194	0.163891	1522.313843
10360.296287	0.091183	0.163891	1609.119873
10360.297211	0.091161	0.163891	1693.352539
10360.298097	0.091187	0.163891	1774.143799
10360.299033	0.091245	0.163891	1859.549194
10360.299942	0.091183	0.163891	1942.434448
10360.300856	0.091198	0.163891	2025.788940
10361.331195	1.267258	0.180967	608.283997
10361.332124	0.605654	0.180967	1170.936768
10361.333026	0.092758	0.180967	1254.604126
10361.333910	0.091146	0.180967	1335.177368
10361.334854	0.091256	0.180967	1421.323120
10361.335756	0.091084	0.180967	1503.480835
10361.336647	0.091139	0.180967	1584.685547
10361.337571	0.091201	0.180967	1668.955444
10361.338465	0.091267	0.180967	1750.548218
10361.339368	0.091117	0.180967	1832.826782
10361.340258	0.091143	0.180967	1913.943726
10361.341199	0.091208	0.180967	1999.770874
10362.405340	1.222306	0.162872	550.037659
10362.406243	0.703480	0.162872	1185.280273
10362.407127	0.094486	0.162872	1268.805908
10362.408064	0.091293	0.162872	1354.347168
10362.408980	0.091161	0.162872	1437.850586
10362.409879	0.091143	0.162872	1519.787720
10362.410800	0.091252	0.162872	1603.831177
10362.411708	0.091256	0.162872	1686.691650
10362.412605	0.091121	0.162872	1768.426880
10362.413491	0.091234	0.162872	1849.260254
10362.414440	0.091307	0.162872	1935.910889
10362.415342	0.091278	0.162872	2018.243652
10363.445730	1.232486	0.177430	566.943787
10363.446626	0.698448	0.177430	1192.753662
10363.447585	0.093453	0.177430	1282.375488
10363.448481	0.091102	0.177430	1364.003174
10363.449384	0.091176	0.177430	1446.334717
10363.450272	0.091198	0.177430	1527.318115
10363.451220	0.091351	0.177430	1613.919189
10363.452124	0.091307	0.177430	1696.461060
10363.453020	0.091227	0.177430	1778.200317
10363.453953	0.091351	0.177430	1863.431152
10363.454854	0.091285	0.177430	1945.679321
10363.455765	0.091146	0.177430	2028.713501
10364.519888	1.207104	0.166256	533.540161
10364.520781	0.732583	0.166256	1187.736816
10364.521743	0.093197	0.166256	1277.392334
10364.522647	0.091099	0.166256	1359.745483
10364.523567	0.091187	0.166256	1443.637085
10364.524452	0.091245	0.166256	1524.389038
10364.525399	0.091212	0.166256	1610.766968
10364.526297	0.091146	0.166256	1692.616333
10364.527184	0.091245	0.166256	1773.550781
10364.528116	0.091249	0.166256	1858.594604
10364.529017	0.091124	0.166256	1940.697510
10364.529931	0.091187	0.166256	2024.041992
10365.559244	1.211221	0.183900	535.359497
10365.560137	0.713049	0.183900	1172.112549
10365.561110	0.093025	0.183900	1262.625732
10365.562019	0.091245	0.183900	1345.567505
10365.562912	0.091176	0.183900	1426.987305
10365.563850	0.091216	0.183900	1512.547729
10365.564742	0.091322	0.183900	1594.006958
10365.565643	0.091183	0.183900	1676.162720
10365.566532	0.091172	0.183900	1757.214478
10365.567461	0.091249	0.183900	1841.984619
10365.568370	0.091183	0.183900	1924.869873
10365.569276	0.091201	0.183900	2007.498169
10366.633422	1.216157	0.163799	532.676880
10366.634374	0.636903	0.163799	1139.008545
10366.635295	0.093029	0.163799	1224.687866
10366.636197	0.091084	0.163799	1306.845581
10366.637128	0.091245	0.163799	1391.794800
10366.638035	0.091289	0.163799	1474.593994
10366.638937	0.091223	0.163799	1556.877319
10366.639824	0.091165	0.163799	1637.740234
10366.640777	0.091267	0.163799	1724.717773
10366.641679	0.091271	0.163799	1807.043945
10366.642576	0.091150	0.163799	1888.805420
10366.643470	0.091230	0.163799	1970.365479
10367.672772	1.202699	0.180556	523.174011
10367.673722	0.659484	0.180556	1149.683472
10367.674634	0.093058	0.180556	1234.552246
10367.675532	0.091106	0.180556	1316.365356
10367.676421	0.091238	0.180556	1397.475708
10367.677371	0.091245	0.180556	1484.158569
10367.678272	0.091212	0.180556	1566.340698
10367.679168	0.091143	0.180556	1648.004395
10367.680080	0.091168	0.180556	1731.149780
10367.680997	0.091252	0.180556	1814.828247
10367.681906	0.091154	0.180556	1897.686890
10367.682797	0.091172	0.180556	1978.921021
10368.748013	1.252595	0.166208	579.951599
10368.748932	0.648666	0.166208	1176.075439
10368.749821	0.093541	0.166208	1259.233643
10368.750775	0.091198	0.166208	1346.236084
10368.751685	0.091080	0.166208	1429.119141
10368.752581	0.091135	0.166208	1510.776367
10368.753471	0.091139	0.166208	1591.890015
10368.754402	0.091322	0.166208	1676.910767
10368.755307	0.091165	0.166208	1759.414673
10368.756198	0.091205	0.166208	1840.678223
10368.757117	0.091278	0.166208	1924.562744
10368.758026	0.091260	0.166208	2007.517822
10369.787346	1.220819	0.182470	543.264526
10369.788326	0.596792	0.182470	1128.120605
10369.789220	0.092849	0.182470	1211.127686
10369.790107	0.091161	0.182470	1291.987427
10369.791038	0.091260	0.182470	1376.950317
10369.791941	0.091183	0.182470	1459.288452
10369.792862	0.091077	0.182470	1543.170044
10369.793761	0.091157	0.182470	1625.120361
10369.794713	0.091194	0.182470	1711.936890
10369.795613	0.091139	0.182470	1793.961914
10369.796503	0.091219	0.182470	1875.147217
10369.797408	0.091234	0.182470	1957.714111
10370.863620	1.269836	0.165442	609.521484
10370.864535	0.629158	0.165442	1185.200806
10370.865440	0.093113	0.165442	1269.467896
10370.866327	0.091154	0.165442	1350.321167
10370.867271	0.091161	0.165442	1436.377075
10370.868172	0.091190	0.165442	1518.539429
10370.869064	0.091190	0.165442	1599.881104
10370.870001	0.091282	0.165442	1685.412109
10370.870899	0.091223	0.165442	1767.330444
10370.871797	0.091227	0.165442	1849.252075
10370.872680	0.091146	0.165442	1929.734253
10370.873620	0.091267	0.165442	2015.525269
10371.899907	1.250618	0.183360	615.303955
10371.900836	0.583656	0.183360	1157.520386
10371.901742	0.092670	0.183360	1241.479126
10371.902627	0.091198	0.183360	1322.188965
10371.903581	0.091234	0.183360	1409.226318
10371.904474	0.091216	0.183360	1490.682007
10371.905370	0.091241	0.183360	1572.434326
10371.906261	0.091274	0.183360	1653.759888
10371.907197	0.091263	0.183360	1739.182495
10371.908097	0.091205	0.183360	1821.266846
10371.908993	0.091198	0.183360	1902.979858
10371.909926	0.091172	0.183360	1988.043213
10372.977143	1.261194	0.169120	594.022339
10372.978070	0.625129	0.169120	1173.517334
10372.978962	0.093325	0.169120	1256.763428
10372.979908	0.091190	0.169120	1343.029297
10372.980810	0.091241	0.169120	1425.329102
10372.981705	0.091267	0.169120	1507.013184
10372.982596	0.091154	0.169120	1588.230957
10372.983528	0.091205	0.169120	1673.233887
10372.984434	0.091176	0.169120	1755.838867
10372.985331	0.091329	0.169120	1837.761230
10372.986258	0.091271	0.169120	1922.369263
10372.987168	0.091351	0.169120	2005.499023
10374.014425	1.221361	0.184130	548.391113
10374.015326	0.714269	0.184130	1191.947266
10374.016283	0.094395	0.184130	1282.282837
10374.017182	0.091230	0.184130	1364.299072
10374.018073	0.091183	0.184130	1445.542969
10374.018963	0.091194	0.184130	1526.705444
10374.019897	0.091230	0.184130	1611.914673
10374.020799	0.091201	0.184130	1694.178101
10374.021697	0.091157	0.184130	1776.037231
10374.022582	0.091183	0.184130	1856.734009
10374.023519	0.091263	0.184130	1942.247803
10374.024427	0.091168	0.184130	2025.028564
10375.092684	1.199059	0.164761	525.187805
10375.093635	0.640166	0.164761	1133.985718
10375.094549	0.093094	0.164761	1219.074097
10375.095452	0.091282	0.164761	1301.501465
10375.096343	0.091238	0.164761	1382.794312
10375.097296	0.091172	0.164761	1469.681152
10375.098200	0.091208	0.164761	1552.133667
10375.099090	0.091230	0.164761	1633.328735
10375.100036	0.091227	0.164761	1719.629272
10375.100941	0.091208	0.164761	1802.172974
10375.101832	0.091194	0.164761	1883.426636
10375.102723	0.091190	0.164761	1964.677124
10376.126926	1.212352	0.186244	534.647339
10376.127845	0.698804	0.186244	1176.847900
10376.128740	0.094050	0.186244	1261.022949
10376.129673	0.091219	0.186244	1346.130737
10376.130581	0.091139	0.186244	1428.884888
10376.131479	0.091095	0.186244	1510.688232
10376.132364	0.091198	0.186244	1591.398071
10376.133312	0.091223	0.186244	1677.877563
10376.134206	0.091157	0.186244	1759.372070
10376.135101	0.091263	0.186244	1841.052856
10376.136038	0.091238	0.186244	1926.542725
10376.136943	0.091241	0.186244	2009.116211
10377.207253	1.217150	0.175179	535.545837
10377.208158	0.718319	0.175179	1185.624634
10377.209048	0.094567	0.175179	1269.788940
10377.209989	0.091230	0.175179	1355.636841
10377.210894	0.091219	0.175179	1438.190430
10377.211782	0.091190	0.175179	1519.167358
10377.212706	0.091216	0.175179	1603.450806
10377.213610	0.091205	0.175179	1685.900024
10377.214510	0.091212	0.175179	1767.990967
10377.215399	0.091172	0.175179	1849.042725
10377.216357	0.091278	0.175179	1936.487061
10377.217254	0.091245	0.175179	2018.333984
10378.240473	1.224005	0.182764	545.906250
10378.241380	0.703469	0.182764	1183.952881
10378.242265	0.094416	0.182764	1267.511475
10378.243221	0.091293	0.182764	1354.787354
10378.244122	0.091044	0.182764	1436.817749
10378.245020	0.091190	0.182764	1518.706543
10378.245947	0.091278	0.182764	1603.321289
10378.246856	0.091278	0.182764	1686.293091
10378.247759	0.091183	0.182764	1768.631226
10378.248646	0.091241	0.182764	1849.562378
10378.249591	0.091285	0.182764	1935.827026
10378.250493	0.091143	0.182764	2018.037598
10379.320798	1.231282	0.172403	555.308044
10379.321709	0.682332	0.172403	1176.912109
10379.322603	0.093948	0.172403	1260.901367
10379.323562	0.091128	0.172403	1348.293091
10379.324462	0.091091	0.172403	1430.275269
10379.325354	0.091172	0.172403	1511.600586
10379.326288	0.091205	0.172403	1596.785889
10379.327191	0.091179	0.172403	1679.120728
10379.328087	0.091066	0.172403	1760.715576
10379.328972	0.091238	0.172403	1841.461060
10379.329907	0.091289	0.172403	1926.816284
10379.330819	0.091216	0.172403	2010.005127
10380.354028	1.254056	0.186615	593.168640
10380.354934	0.652526	0.186615	1184.356934
10380.355881	0.093025	0.186615	1272.451538
10380.356784	0.091179	0.186615	1354.786377
10380.357689	0.091198	0.186615	1437.320068
10380.358578	0.091110	0.186615	1518.316528
10380.359526	0.091205	0.186615	1604.778687
10380.360434	0.091201	0.186615	1687.589355
10380.361327	0.091143	0.186615	1768.979736
10380.362250	0.091245	0.186615	1853.198975
10380.363154	0.091263	0.186615	1935.701172
10380.364063	0.091208	0.186615	2018.609741
10381.435362	1.222745	0.170925	566.131104
10381.436298	0.633538	0.170925	1159.122314
10381.437212	0.093094	0.170925	1244.210693
10381.438104	0.091190	0.170925	1325.552368
10381.439046	0.091263	0.170925	1411.522461
10381.439944	0.091263	0.170925	1493.477051
10381.440854	0.091307	0.170925	1576.566772
10381.441741	0.091201	0.170925	1657.462158
10381.442679	0.091263	0.170925	1743.067261
10381.443584	0.091326	0.170925	1825.717041
10381.444481	0.091216	0.170925	1907.537598
10381.445388	0.091289	0.170925	1990.336792
10382.467551	1.226645	0.183070	554.443726
10382.468448	0.707296	0.183070	1188.888428
10382.469377	0.093955	0.183070	1276.172729
10382.470286	0.091135	0.183070	1359.014648
10382.471184	0.091216	0.183070	1440.926514
10382.472074	0.091271	0.183070	1522.157471
10382.473022	0.091359	0.183070	1608.765503
10382.473927	0.091234	0.183070	1691.332397
10382.474818	0.091223	0.183070	1772.612183
10382.475733	0.091227	0.183070	1856.084717
10382.476649	0.091154	0.183070	1939.581421
10382.477547	0.091124	0.183070	2021.411011
10383.549961	1.235621	0.173322	614.103821
10383.550880	0.584033	0.173322	1150.830322
10383.551814	0.092325	0.173322	1237.062256
10383.552709	0.091150	0.173322	1318.641357
10383.553661	0.091139	0.173322	1405.405640
10383.554556	0.091110	0.173322	1486.948730
10383.555473	0.091183	0.173322	1570.563354
10383.556362	0.091267	0.173322	1651.699829
10383.557318	0.091205	0.173322	1738.891602
10383.558225	0.091161	0.173322	1821.574463
10383.559120	0.091230	0.173322	1903.225708
10383.560056	0.091154	0.173322	1988.545410
10384.582137	1.269283	0.185862	616.871765
10384.583057	0.610294	0.185862	1178.342407
10384.583958	0.093307	0.185862	1262.411865
10384.584843	0.091179	0.185862	1343.105469
10384.585790	0.091399	0.185862	1429.660278
10384.586693	0.091245	0.185862	1512.054565
10384.587588	0.091318	0.185862	1593.784546
10384.588510	0.091351	0.185862	1678.010498
10384.589430	0.091355	0.185862	1762.057129
10384.590323	0.091282	0.185862	1843.571777
10384.591208	0.091293	0.185862	1924.365845
10384.592146	0.091293	0.185862	2009.998413
10385.663448	1.218018	0.173313	548.107910
10385.664347	0.709157	0.173313	1185.639648
10385.665291	0.094025	0.173313	1274.398926
10385.666201	0.091311	0.173313	1357.491943
10385.667109	0.091337	0.173313	1440.425659
10385.667998	0.091176	0.173313	1521.480713
10385.668956	0.091362	0.173313	1609.005859
10385.669862	0.091315	0.173313	1691.736938
10385.670765	0.091351	0.173313	1774.227173
10385.671686	0.091256	0.173313	1858.274048
10385.672597	0.091296	0.173313	1941.445068
10385.673505	0.091326	0.173313	2024.368774
10386.696670	1.233962	0.184021	556.517029
10386.697572	0.692487	0.184021	1181.139893
10386.698510	0.093915	0.184021	1269.231934
10386.699414	0.091304	0.184021	1351.770508
10386.700322	0.091238	0.184021	1434.614380
10386.701208	0.091377	0.184021	1515.574341
10386.702156	0.091355	0.184021	1602.178833
10386.703066	0.091307	0.184021	1685.268555
10386.703958	0.091337	0.184021	1766.740845
10386.704883	0.091304	0.184021	1851.196777
10386.705787	0.091351	0.184021	1933.778320
10386.706693	0.091271	0.184021	2016.469604
10387.776980	1.216622	0.177837	545.046753
10387.777884	0.705905	0.177837	1183.184448
10387.778822	0.094332	0.177837	1271.668091
10387.779729	0.091238	0.177837	1354.420776
10387.780623	0.091333	0.177837	1436.072510
10387.781507	0.091344	0.177837	1516.820557
10387.782440	0.091348	0.177837	1602.047974
10387.783335	0.091322	0.177837	1683.781250
10387.784263	0.091377	0.177837	1768.579102
10387.785156	0.091307	0.177837	1850.116577
10387.786095	0.091436	0.177837	1935.974609
10387.786999	0.091223	0.177837	2018.440308
10388.811212	1.210616	0.180947	535.092468
10388.812107	0.712031	0.180947	1172.360352
10388.813073	0.093325	0.180947	1262.512451
10388.813968	0.091227	0.180947	1344.160400
10388.814853	0.091307	0.180947	1424.967407
10388.815788	0.091366	0.180947	1510.394531
10388.816700	0.091161	0.180947	1593.533203
10388.817619	0.091282	0.180947	1677.421143
10388.818514	0.091326	0.180947	1759.157593
10388.819478	0.091296	0.180947	1847.167358
10388.820382	0.091267	0.180947	1929.672852
10388.821274	0.091249	0.180947	2011.066772
10389.890505	1.197034	0.175851	519.512573
10389.891451	0.673949	0.175851	1157.068359
10389.892362	0.093256	0.175851	1242.024170
10389.893263	0.091230	0.175851	1324.222778
10389.894152	0.091271	0.175851	1405.362427
10389.895100	0.091351	0.175851	1491.963501
10389.895998	0.091282	0.175851	1573.934448
10389.896909	0.091234	0.175851	1657.048706
10389.897801	0.091271	0.175851	1738.462158
10389.898742	0.091439	0.175851	1824.506470
10389.899643	0.091205	0.175851	1906.682007
10389.900531	0.091179	0.175851	1987.649170
10390.925777	1.213912	0.183908	536.549255
10390.926676	0.725306	0.183908	1188.599731
10390.927565	0.094772	0.183908	1272.851807
10390.928531	0.091329	0.183908	1361.075928
10390.929434	0.091183	0.183908	1443.414062
10390.930330	0.091315	0.183908	1525.232056
10390.931252	0.091351	0.183908	1609.458008
10390.932149	0.091348	0.183908	1691.396851
10390.933046	0.091260	0.183908	1773.256836
10390.933929	0.091377	0.183908	1853.942627
10390.934864	0.091366	0.183908	1939.369873
10390.935770	0.091274	0.183908	2022.064453
10392.004041	1.201176	0.178035	524.913696
10392.005003	0.628718	0.178035	1129.740723
10392.005914	0.093204	0.178035	1214.649902
10392.006814	0.091267	0.178035	1296.790283
10392.007734	0.091311	0.178035	1380.796387
10392.008635	0.091311	0.178035	1463.067627
10392.009535	0.091245	0.178035	1545.188232
10392.010432	0.091146	0.178035	1626.946411
10392.011370	0.091263	0.178035	1712.551514
10392.012276	0.091289	0.178035	1795.259399
10392.013176	0.091168	0.178035	1877.310791
10392.014062	0.091223	0.178035	1958.134521
10393.040340	1.213564	0.184270	540.036133
10393.041234	0.712086	0.184270	1176.641113
10393.042190	0.093618	0.184270	1266.140137
10393.043086	0.091208	0.184270	1347.862915
10393.043974	0.091223	0.184270	1428.869019
10393.044905	0.091315	0.184270	1513.883057
10393.045822	0.091326	0.184270	1597.628662
10393.046727	0.091234	0.184270	1680.195557
10393.047612	0.091311	0.184270	1761.005859
10393.048556	0.091337	0.184270	1847.227661
10393.049459	0.091198	0.184270	1929.578979
10393.050352	0.091238	0.184270	2011.054321
10394.117581	1.204197	0.177696	525.029785
10394.118536	0.678483	0.177696	1172.980713
10394.119446	0.093105	0.177696	1257.706665
10394.120360	0.091333	0.177696	1341.185059
10394.121259	0.091260	0.177696	1423.227539
10394.122209	0.091315	0.177696	1509.976562
10394.123114	0.091329	0.177696	1592.629639
10394.124029	0.091256	0.177696	1676.128906
10394.124918	0.091384	0.177696	1757.369507
10394.125871	0.091311	0.177696	1844.388916
10394.126762	0.091366	0.177696	1925.796021
10394.127650	0.091212	0.177696	2006.792358
10395.153861	1.213147	0.184871	528.932129
10395.154842	0.591427	0.184871	1109.122070
10395.155750	0.092787	0.184871	1193.372559
10395.156646	0.091256	0.184871	1275.138062
10395.157570	0.091267	0.184871	1359.468872
10395.158472	0.091278	0.184871	1441.801758
10395.159369	0.091333	0.184871	1523.727417
10395.160255	0.091278	0.184871	1604.599854
10395.161198	0.091370	0.184871	1690.761475
10395.162094	0.091300	0.184871	1772.566284
10395.162999	0.091344	0.184871	1855.232666
10395.163891	0.091274	0.184871	1936.649414
10396.232158	1.223181	0.180085	556.547424
10396.233057	0.705831	0.180085	1191.089844
10396.233991	0.094607	0.180085	1279.452759
10396.234897	0.091351	0.180085	1362.217041
10396.235802	0.091322	0.180085	1444.863525
10396.236703	0.091311	0.180085	1527.134766
10396.237630	0.091267	0.180085	1611.739380
10396.238535	0.091377	0.180085	1694.435547
10396.239436	0.091293	0.180085	1776.690308
10396.240321	0.091344	0.180085	1857.529785
10396.241283	0.091381	0.180085	1945.437988
10396.242192	0.091278	0.180085	2028.409790
10397.268434	1.212393	0.183610	539.514709
10397.269337	0.717766	0.183610	1187.657471
10397.270222	0.094797	0.183610	1271.553101
10397.271159	0.091366	0.183610	1357.162964
10397.272073	0.091307	0.183610	1440.617920
10397.272970	0.091399	0.183610	1522.602783
10397.273897	0.091344	0.183610	1607.278687
10397.274803	0.091523	0.183610	1690.198975
10397.275711	0.091256	0.183610	1773.059570
10397.276605	0.091351	0.183610	1854.727661
10397.277553	0.091392	0.183610	1941.366943
10397.278453	0.091362	0.183610	2023.593018
10398.344655	1.211169	0.179795	535.336853
10398.345576	0.691392	0.179795	1172.108521
10398.346476	0.093929	0.179795	1256.645020
10398.347415	0.091241	0.179795	1342.320801
10398.348311	0.091230	0.179795	1424.063354
10398.349206	0.091219	0.179795	1505.704834
10398.350092	0.091304	0.179795	1586.599854
10398.351039	0.091373	0.179795	1673.130371
10398.351938	0.091278	0.179795	1755.189331
10398.352838	0.091230	0.179795	1837.296753
10398.353766	0.091329	0.179795	1922.050415
10398.354671	0.091373	0.179795	2004.743286
10399.382985	1.202073	0.184726	524.103699
10399.383878	0.725332	0.184726	1171.825195
10399.384836	0.093600	0.184726	1261.493896
10399.385735	0.091274	0.184726	1343.549561
10399.386624	0.091208	0.184726	1424.633911
10399.387568	0.091355	0.184726	1510.873047
10399.388467	0.091300	0.184726	1592.951782
10399.389365	0.091333	0.184726	1674.968872
10399.390254	0.091267	0.184726	1756.105347
10399.391190	0.091344	0.184726	1841.603271
10399.392099	0.091194	0.184726	1924.498535
10399.392999	0.091205	0.184726	2006.582886
10400.459234	1.219003	0.182184	554.646179
10400.460133	0.697712	0.182184	1181.889648
10400.461019	0.094464	0.182184	1265.584839
10400.461966	0.091260	0.182184	1352.007812
10400.462877	0.091296	0.182184	1435.178833
10400.463801	0.091340	0.182184	1519.577271
10400.464687	0.091245	0.182184	1600.420410
10400.465641	0.091326	0.182184	1687.545166
10400.466560	0.091282	0.182184	1771.433105
10400.467451	0.091307	0.182184	1852.787964
10400.468396	0.091285	0.182184	1939.052612
10400.469306	0.091223	0.182184	2022.065674
10401.497556	1.218790	0.183694	537.486511
10401.498482	0.678600	0.183694	1165.869873
10401.499378	0.093867	0.183694	1249.974854
10401.500308	0.091388	0.183694	1334.965576
10401.501213	0.091399	0.183694	1417.681641
10401.502117	0.091307	0.183694	1500.223511
10401.503007	0.091274	0.183694	1581.457764
10401.503964	0.091373	0.183694	1668.901978
10401.504864	0.091333	0.183694	1751.101685
10401.505763	0.091344	0.183694	1833.219971
10401.506666	0.091337	0.183694	1915.697021
10401.507586	0.091351	0.183694	1999.740234
10402.573811	1.254598	0.183465	593.425049
10402.574734	0.626312	0.183465	1171.511230
10402.575634	0.093259	0.183465	1255.444580
10402.576530	0.091296	0.183465	1337.246094
10402.577468	0.091395	0.183465	1422.974854
10402.578376	0.091252	0.183465	1505.832031
10402.579263	0.091340	0.183465	1586.850952
10402.580192	0.091293	0.183465	1671.661865
10402.581098	0.091355	0.183465	1754.429443
10402.581998	0.091388	0.183465	1836.678589
10402.582893	0.091227	0.183465	1918.326538
10402.583836	0.091403	0.183465	2004.519165
10403.612118	1.213748	0.185338	536.476440
10403.613011	0.714943	0.185338	1174.920166
10403.613958	0.093724	0.185338	1263.677124
10403.614866	0.091198	0.185338	1346.484497
10403.615758	0.091355	0.185338	1427.973145
10403.616689	0.091362	0.185338	1513.031494
10403.617595	0.091381	0.185338	1595.822266
10403.618501	0.091296	0.185338	1678.536743
10403.619389	0.091307	0.185338	1759.617676
10403.620323	0.091362	0.185338	1844.950073
10403.621229	0.091370	0.185338	1927.730957
10403.622129	0.091351	0.185338	2009.947144
10404.688341	1.224060	0.181644	549.602966
10404.689241	0.708783	0.181644	1187.507568
10404.690158	0.094482	0.181644	1274.147949
10404.691092	0.091278	0.181644	1359.401611
10404.691997	0.091300	0.181644	1442.028198
10404.692883	0.091344	0.181644	1522.958984
10404.693830	0.091406	0.181644	1609.520752
10404.694738	0.091263	0.181644	1692.387939
10404.695632	0.091267	0.181644	1773.980713
10404.696517	0.091267	0.181644	1854.752075
10404.697447	0.091326	0.181644	1939.684937
10404.698349	0.091296	0.181644	2022.034302
10405.724672	1.274868	0.185769	624.685364
10405.725588	0.613693	0.185769	1186.827881
10405.726513	0.092816	0.185769	1272.682861
10405.727401	0.091172	0.185769	1353.643433
10405.728355	0.091384	0.185769	1440.823975
10405.729280	0.091384	0.185769	1525.354492
10405.730169	0.091370	0.185769	1606.582031
10405.731111	0.091337	0.185769	1692.621216
10405.732030	0.091304	0.185769	1776.529297
10405.732940	0.091403	0.185769	1859.705688
10405.733840	0.091337	0.185769	1941.908691
10405.734793	0.091300	0.185769	2028.917603
10406.801871	1.205160	0.180464	531.475525
10406.802770	0.713767	0.180464	1173.152100
10406.803714	0.093779	0.180464	1261.679810
10406.804611	0.091318	0.180464	1343.592407
10406.805507	0.091216	0.180464	1425.321777
10406.806438	0.091421	0.180464	1510.434570
10406.807348	0.091414	0.180464	1593.620972
10406.808243	0.091392	0.180464	1675.416504
10406.809129	0.091359	0.180464	1756.360229
10406.810084	0.091443	0.180464	1843.688232
10406.810980	0.091282	0.180464	1925.476685
10406.811879	0.091373	0.180464	2007.621216
10407.838157	1.203303	0.188585	533.063354
10407.839050	0.728789	0.188585	1183.872070
10407.840015	0.093223	0.188585	1273.831909
10407.840930	0.091223	0.188585	1357.301025
10407.841829	0.091340	0.188585	1439.416016
10407.842743	0.091307	0.188585	1522.870972
10407.843668	0.091318	0.188585	1607.340454
10407.844576	0.091285	0.188585	1690.227539
10407.845477	0.091366	0.188585	1772.548340
10407.846406	0.091377	0.188585	1857.437500
10407.847310	0.091333	0.188585	1940.002563
10407.848208	0.091296	0.188585	2021.986694
10408.916453	1.239767	0.182293	566.573425
10408.917375	0.658107	0.182293	1173.347778
10408.918275	0.093420	0.182293	1257.426147
10408.919160	0.091088	0.182293	1338.038696
10408.920115	0.091267	0.182293	1425.198730
10408.921024	0.091117	0.182293	1508.024048
10408.921915	0.091249	0.182293	1589.326660
10408.922858	0.091227	0.182293	1675.353516
10408.923756	0.091278	0.182293	1757.321289
10408.924653	0.091165	0.182293	1839.095947
10408.925546	0.091205	0.182293	1920.541870
10408.926483	0.091274	0.182293	2006.066040
10409.951687	1.193331	0.187554	514.325745
10409.952627	0.716902	0.187554	1188.213501
10409.953536	0.093750	0.187554	1273.432251
10409.954442	0.091135	0.187554	1356.000732
10409.955332	0.091223	0.187554	1437.189331
10409.956264	0.091172	0.187554	1522.161499
10409.957159	0.091245	0.187554	1603.825928
10409.958059	0.091190	0.187554	1685.897095
10409.958950	0.091135	0.187554	1767.098633
10409.959907	0.091238	0.187554	1854.413208
10409.960810	0.091110	0.187554	1936.685181
10409.961711	0.091091	0.187554	2018.758423
10411.031014	1.232831	0.183835	567.102234
10411.031913	0.690494	0.183835	1187.856689
10411.032801	0.094175	0.183835	1271.483887
10411.033748	0.091132	0.183835	1357.785522
10411.034655	0.091110	0.183835	1440.421997
10411.035571	0.091022	0.183835	1523.797852
10411.036461	0.091161	0.183835	1604.931030
10411.037426	0.091022	0.183835	1692.766968
10411.038323	0.091146	0.183835	1774.525146
10411.039210	0.091212	0.183835	1855.430298
10411.040157	0.091150	0.183835	1941.749268
10411.041061	0.091212	0.183835	2024.205078
10412.065231	1.208335	0.189350	532.875671
10412.066194	0.619750	0.189350	1129.694580
10412.067099	0.092827	0.189350	1213.703125
10412.068002	0.091124	0.189350	1295.988281
10412.068896	0.091058	0.189350	1377.394409
10412.069844	0.091194	0.189350	1463.846191
10412.070749	0.091088	0.189350	1546.280518
10412.071640	0.091110	0.189350	1627.459229
10412.072581	0.091227	0.189350	1713.303711
10412.073488	0.091176	0.189350	1795.999878
10412.074381	0.091135	0.189350	1877.383667
10412.075270	0.091091	0.189350	1958.363892
10413.145580	1.214766	0.185664	574.584167
10413.146517	0.601692	0.185664	1138.369507
10413.147421	0.092823	0.185664	1222.281982
10413.148311	0.091099	0.185664	1303.359741
10413.149255	0.091278	0.185664	1389.526245
10413.150151	0.091223	0.185664	1471.262207
10413.151042	0.091208	0.185664	1552.528931
10413.151931	0.091139	0.185664	1633.551392
10413.152867	0.091238	0.185664	1718.949951
10413.153781	0.091161	0.185664	1802.270996
10413.154677	0.091165	0.185664	1883.954468
10413.155602	0.091201	0.185664	1968.315552
10414.179805	1.224723	0.188972	547.451111
10414.180709	0.710402	0.188972	1189.654175
10414.181593	0.094453	0.188972	1273.150757
10414.182551	0.091168	0.188972	1360.489868
10414.183451	0.091088	0.188972	1442.468750
10414.184350	0.091099	0.188972	1524.366455
10414.185238	0.091183	0.188972	1605.336792
10414.186181	0.091223	0.188972	1691.360229
10414.187091	0.091102	0.188972	1774.263306
10414.187992	0.091252	0.188972	1856.481689
10414.188922	0.091157	0.188972	1941.257935
10414.189825	0.091278	0.188972	2023.682007
10415.259122	1.219896	0.180581	583.110413
10415.260049	0.610031	0.180581	1148.608643
10415.260954	0.092900	0.180581	1232.683472
10415.261847	0.091014	0.180581	1313.959351
10415.262776	0.091168	0.180581	1398.654663
10415.263681	0.091062	0.180581	1481.065796
10415.264585	0.091150	0.180581	1563.465332
10415.265472	0.091172	0.180581	1644.334839
10415.266424	0.091187	0.180581	1731.144409
10415.267326	0.091058	0.180581	1813.279053
10415.268216	0.091117	0.180581	1894.373169
10415.269127	0.091208	0.180581	1977.464111
10416.294347	1.198960	0.195514	520.348633
10416.295284	0.715507	0.195514	1190.778320
10416.296197	0.093409	0.195514	1276.061157
10416.297106	0.091084	0.195514	1358.856445
10416.298011	0.091216	0.195514	1441.406738
10416.298952	0.091230	0.195514	1527.254639
10416.299849	0.091165	0.195514	1609.029297
10416.300746	0.091117	0.195514	1690.761230
10416.301631	0.091194	0.195514	1771.467773
10416.302570	0.091241	0.195514	1857.143555
10416.303477	0.091176	0.195514	1939.839722
10416.304373	0.091238	0.195514	2021.588745
10417.374666	1.197682	0.183404	523.386963
10417.375649	0.595419	0.183404	1108.683594
10417.376546	0.092908	0.183404	1192.021851
10417.377444	0.091161	0.183404	1273.884277
10417.378327	0.091198	0.183404	1354.411621
10417.379265	0.091154	0.183404	1439.913696
10417.380173	0.091036	0.183404	1522.574707
10417.381073	0.091249	0.183404	1604.698608
10417.382007	0.091252	0.183404	1689.928345
10417.382914	0.091219	0.183404	1772.664429
10417.383816	0.091165	0.183404	1854.894897
10417.384703	0.091219	0.183404	1935.806641
10418.407884	1.203402	0.196396	531.903687
10418.408868	0.597605	0.196396	1119.947021
10418.409768	0.092827	0.196396	1203.491455
10418.410666	0.091135	0.196396	1285.330933
10418.411556	0.091183	0.196396	1366.483643
10418.412510	0.091249	0.196396	1453.535034
10418.413423	0.091183	0.196396	1536.785034
10418.414315	0.091271	0.196396	1618.198486
10418.415244	0.091176	0.196396	1702.900513
10418.416141	0.091238	0.196396	1784.740845
10418.417045	0.091077	0.196396	1867.074097
10418.417933	0.091183	0.196396	1948.044434
10419.488220	1.210236	0.182990	550.657227
10419.489153	0.643455	0.182990	1151.000244
10419.490062	0.093259	0.182990	1235.772949
10419.490957	0.091190	0.182990	1317.388184
10419.491879	0.091216	0.182990	1401.489136
10419.492780	0.091260	0.182990	1483.714233
10419.493674	0.091154	0.182990	1565.205566
10419.494561	0.091135	0.182990	1646.042480
10419.495502	0.091216	0.182990	1731.876587
10419.496393	0.091212	0.182990	1813.146606
10419.497297	0.091227	0.182990	1895.615601
10419.498207	0.091241	0.182990	1978.645264
10420.522451	1.213389	0.193552	532.677612
10420.523383	0.681189	0.193552	1167.545776
10420.524287	0.093596	0.193552	1252.156738
10420.525182	0.091069	0.193552	1333.663818
10420.526115	0.091194	0.193552	1418.747681
10420.527013	0.091077	0.193552	1500.534546
10420.527899	0.091227	0.193552	1581.361450
10420.528827	0.091168	0.193552	1665.965576
10420.529732	0.091135	0.193552	1748.442993
10420.530634	0.091139	0.193552	1830.650269
10420.531523	0.091124	0.193552	1911.659790
10420.532464	0.091172	0.193552	1997.452515
10421.601740	1.200908	0.184951	528.399597
10421.602733	0.585315	0.184951	1109.617310
10421.603625	0.092703	0.184951	1192.308105
10421.604547	0.091084	0.184951	1276.287598
10421.605432	0.091135	0.184951	1356.942261
10421.606365	0.091154	0.184951	1441.988525
10421.607270	0.091106	0.184951	1524.439453
10421.608160	0.091106	0.184951	1605.523804
10421.609089	0.091205	0.184951	1690.253052
10421.609994	0.091022	0.184951	1772.627686
10421.610911	0.091029	0.184951	1856.101318
10421.611805	0.091176	0.184951	1937.612305
10422.636998	1.194954	0.195953	517.414917
10422.637924	0.713452	0.195953	1178.071533
10422.638868	0.093036	0.195953	1265.897461
10422.639775	0.091077	0.195953	1348.504028
10422.640670	0.091172	0.195953	1430.102905
10422.641597	0.091223	0.195953	1514.666748
10422.642506	0.091256	0.195953	1597.618530
10422.643406	0.091143	0.195953	1679.646851
10422.644292	0.091154	0.195953	1760.408936
10422.645241	0.091249	0.195953	1847.004028
10422.646154	0.091187	0.195953	1930.257324
10422.647043	0.091135	0.195953	2011.276611
10423.715279	1.211371	0.183255	534.214539
10423.716203	0.694215	0.183255	1175.669189
10423.717100	0.093922	0.183255	1259.917358
10423.718033	0.091146	0.183255	1344.956787
10423.718937	0.091230	0.183255	1427.429077
10423.719830	0.091161	0.183255	1508.835693
10423.720718	0.091150	0.183255	1589.776855
10423.721667	0.091278	0.183255	1676.399780
10423.722569	0.091205	0.183255	1758.666504
10423.723471	0.091183	0.183255	1840.913452
10423.724357	0.091227	0.183255	1921.740356
10423.725306	0.091223	0.183255	2008.311157
10424.751613	1.265445	0.195312	601.086609
10424.752533	0.623723	0.195312	1174.911865
10424.753439	0.092996	0.195312	1259.165894
10424.754348	0.091176	0.195312	1342.044434
10424.755273	0.091219	0.195312	1426.422485
10424.756175	0.091212	0.195312	1508.695801
10424.757066	0.091179	0.195312	1589.936523
10424.757995	0.091198	0.195312	1674.659058
10424.758896	0.091249	0.195312	1756.874268
10424.759795	0.091201	0.195312	1838.864136
10424.760679	0.091219	0.195312	1919.502197
10424.761627	0.091300	0.195312	2006.054687
10425.829842	1.206141	0.183864	536.732910
10425.830734	0.716418	0.183864	1175.778076
10425.831671	0.093604	0.183864	1263.484619
10425.832586	0.091084	0.183864	1346.826416
10425.833482	0.091172	0.183864	1428.516357
10425.834411	0.091176	0.183864	1513.218384
10425.835311	0.091274	0.183864	1595.365356
10425.836210	0.091124	0.183864	1677.286133
10425.837095	0.091099	0.183864	1757.908447
10425.838056	0.091230	0.183864	1845.580933
10425.838950	0.091326	0.183864	1927.226074
10425.839850	0.091121	0.183864	2009.234619
10426.865156	1.263626	0.195832	611.594727
10426.866086	0.601029	0.195832	1170.551758
10426.866983	0.092659	0.195832	1253.666626
10426.867878	0.091080	0.195832	1335.183472
10426.868816	0.091260	0.195832	1420.785156
10426.869715	0.091044	0.195832	1502.633423
10426.870602	0.091183	0.195832	1583.512573
10426.871530	0.091227	0.195832	1668.171021
10426.872429	0.091168	0.195832	1750.131226
10426.873324	0.091172	0.195832	1831.730103
10426.874212	0.091073	0.195832	1912.602905
10426.875152	0.091201	0.195832	1998.332031
10427.943384	1.217113	0.184214	546.483826
10427.944283	0.708640	0.184214	1183.551270
10427.945216	0.093999	0.184214	1271.252319
10427.946136	0.091124	0.184214	1355.086670
10427.947049	0.091044	0.184214	1438.209595
10427.947935	0.091161	0.184214	1518.978149
10427.948879	0.091256	0.184214	1605.123901
10427.949777	0.091143	0.184214	1686.969971
10427.950665	0.091183	0.184214	1767.940308
10427.951569	0.091179	0.184214	1850.366333
10427.952503	0.091117	0.184214	1935.469604
10427.953406	0.091084	0.184214	2017.718384
10428.979665	1.215527	0.199743	539.694153
10428.980559	0.709244	0.199743	1173.758545
10428.981529	0.093223	0.199743	1264.184570
10428.982437	0.091044	0.199743	1346.852295
10428.983330	0.091066	0.199743	1428.173950
10428.984267	0.091194	0.199743	1513.622559
10428.985167	0.091249	0.199743	1595.746460
10428.986067	0.091282	0.199743	1677.900024
10428.986954	0.091241	0.199743	1758.831177
10428.987903	0.091234	0.199743	1845.412354
10428.988811	0.091245	0.199743	1928.262939
10428.989709	0.091154	0.199743	2010.118896
10430.056903	1.199989	0.185096	521.995178
10430.057860	0.634058	0.185096	1128.788330
10430.058773	0.093102	0.185096	1213.790283
10430.059668	0.091194	0.185096	1295.408813
10430.060599	0.091205	0.185096	1380.320557
10430.061507	0.091249	0.185096	1463.174438
10430.062418	0.091150	0.185096	1546.212036
10430.063315	0.091073	0.185096	1627.904541
10430.064255	0.091223	0.185096	1713.654297
10430.065155	0.091263	0.185096	1795.791382
10430.066054	0.091322	0.185096	1877.889893
10430.066938	0.091304	0.185096	1958.602417
10431.094255	1.247175	0.199381	574.947815
10431.095178	0.642114	0.199381	1167.619263
10431.096083	0.093175	0.199381	1251.942627
10431.096972	0.091154	0.199381	1332.978149
10431.097927	0.091256	0.199381	1420.127686
10431.098836	0.091227	0.199381	1503.052856
10431.099734	0.091201	0.199381	1584.951538
10431.100669	0.091289	0.199381	1670.306763
10431.101574	0.091198	0.199381	1752.840576
10431.102475	0.091256	0.199381	1835.062256
10431.103362	0.091102	0.199381	1915.869995
10431.104302	0.091296	0.199381	2001.688599
10432.170498	1.240452	0.184117	610.302246
10432.171416	0.608445	0.184117	1168.854492
10432.172314	0.093127	0.184117	1252.482910
10432.173201	0.091168	0.184117	1333.349121
10432.174158	0.091289	0.184117	1420.712769
10432.175058	0.091150	0.184117	1502.747681
10432.175956	0.091238	0.184117	1584.679199
10432.176849	0.091263	0.184117	1666.177490
10432.177789	0.091212	0.184117	1751.916870
10432.178698	0.091077	0.184117	1834.705566
10432.179592	0.091135	0.184117	1916.180420
10432.180522	0.091179	0.184117	2000.977051
10433.209809	1.211569	0.201314	537.936462
10433.210775	0.611188	0.201314	1128.343750
10433.211680	0.093051	0.201314	1212.554443
10433.212577	0.091227	0.201314	1294.384888
10433.213467	0.091128	0.201314	1375.488770
10433.214402	0.091344	0.201314	1460.895386
10433.215305	0.091219	0.201314	1543.266602
10433.216198	0.091322	0.201314	1624.817139
10433.217121	0.091311	0.201314	1709.097168
10433.218029	0.091179	0.201314	1791.887939
10433.218934	0.091183	0.201314	1874.408447
10433.219821	0.091168	0.201314	1955.274658
10434.284043	1.246285	0.184855	628.127869
10434.284981	0.556234	0.184855	1149.875488
10434.285888	0.092479	0.184855	1233.754150
10434.286783	0.091106	0.184855	1315.293945
10434.287726	0.091234	0.184855	1401.327759
10434.288635	0.091128	0.184855	1484.163086
10434.289534	0.091234	0.184855	1566.182617
10434.290420	0.091139	0.184855	1646.931641
10434.291369	0.091230	0.184855	1733.509399
10434.292264	0.091227	0.184855	1815.157349
10434.293151	0.091187	0.184855	1896.039795
10434.294098	0.091187	0.184855	1982.393433
10435.322327	1.230458	0.199643	552.475525
10435.323276	0.622170	0.199643	1142.915283
10435.324168	0.093369	0.199643	1226.200562
10435.325123	0.091139	0.199643	1313.238281
10435.326018	0.091080	0.199643	1394.755127
10435.326908	0.091117	0.199643	1475.849243
10435.327848	0.091113	0.199643	1561.495728
10435.328748	0.091187	0.199643	1643.563599
10435.329656	0.091165	0.199643	1726.341064
10435.330556	0.091176	0.199643	1808.399048
10435.331494	0.091201	0.199643	1893.945801
10435.332397	0.091168	0.199643	1976.270752
10436.398545	1.205189	0.186208	531.488464
10436.399437	0.737963	0.186208	1189.751221
10436.400402	0.093442	0.186208	1279.923096
10436.401297	0.091161	0.186208	1361.512085
10436.402200	0.091161	0.186208	1443.830322
10436.403087	0.091205	0.186208	1524.729004
10436.404033	0.091278	0.186208	1611.078125
10436.404940	0.091176	0.186208	1693.774292
10436.405831	0.091201	0.186208	1775.034546
10436.406759	0.091267	0.186208	1859.730469
10436.407662	0.091168	0.186208	1942.055420
10436.408556	0.091051	0.186208	2023.455078
10437.436920	1.260666	0.201633	603.859253
10437.437832	0.644051	0.201633	1191.234131
10437.438729	0.093347	0.201633	1274.966553
10437.439617	0.091256	0.201633	1356.001953
10437.440566	0.091293	0.201633	1442.638794
10437.441476	0.091318	0.201633	1525.738525
10437.442371	0.091176	0.201633	1607.340576
10437.443295	0.091333	0.201633	1691.732300
10437.444197	0.091208	0.201633	1774.002319
10437.445087	0.091190	0.201633	1855.161621
10437.445973	0.091161	0.201633	1935.930176
10437.446914	0.091249	0.201633	2021.795288
10438.512072	1.197136	0.185878	517.162842
10438.513001	0.711980	0.185878	1178.592285
10438.513933	0.093135	0.185878	1265.393921
10438.514836	0.091176	0.185878	1347.725464
10438.515727	0.091165	0.185878	1428.953125
10438.516660	0.091249	0.185878	1514.088257
10438.517562	0.091241	0.185878	1596.388062
10438.518455	0.091252	0.185878	1677.876465
10438.519345	0.091205	0.185878	1759.048706
10438.520277	0.091322	0.185878	1844.160889
10438.521182	0.091289	0.185878	1926.777466
10438.522080	0.091194	0.185878	2008.669556
10439.551451	1.220497	0.201737	541.900574
10439.552358	0.701488	0.201737	1178.150146
10439.553309	0.093567	0.201737	1267.132324
10439.554206	0.091157	0.201737	1348.900391
10439.555103	0.091216	0.201737	1430.720947
10439.555991	0.091300	0.201737	1511.795410
10439.556931	0.091274	0.201737	1597.593384
10439.557833	0.091154	0.201737	1679.813965
10439.558730	0.091201	0.201737	1761.621460
10439.559655	0.091216	0.201737	1845.996094
10439.560569	0.091359	0.201737	1929.497925
10439.561485	0.091230	0.201737	2013.065063
10440.626658	1.223291	0.188448	554.150818
10440.627569	0.683968	0.188448	1177.246094
10440.628461	0.093988	0.188448	1261.083374
10440.629355	0.091307	0.188448	1342.712158
10440.630315	0.091307	0.188448	1430.367187
10440.631219	0.091293	0.188448	1512.895752
10440.632116	0.091176	0.188448	1594.680176
10440.633052	0.091249	0.188448	1680.088989
10440.633948	0.091359	0.188448	1761.946289
10440.634847	0.091179	0.188448	1843.916382
10440.635733	0.091249	0.188448	1924.762817
10440.636682	0.091340	0.188448	2011.444824
10441.664985	1.226774	0.202648	554.501709
10441.665885	0.703389	0.202648	1187.551514
10441.666830	0.093915	0.202648	1276.301025
10441.667747	0.091198	0.202648	1359.929199
10441.668648	0.091278	0.202648	1442.170776
10441.669535	0.091274	0.202648	1523.131226
10441.670471	0.091307	0.202648	1608.594971
10441.671373	0.091146	0.202648	1690.808838
10441.672260	0.091249	0.202648	1771.746460
10441.673183	0.091252	0.202648	1855.972412
10441.674097	0.091271	0.202648	1939.393921
10441.674999	0.091241	0.202648	2021.693726
10442.741214	1.235394	0.189443	560.868958
10442.742121	0.706183	0.189443	1201.376831
10442.743009	0.094537	0.189443	1285.326050
10442.743969	0.091227	0.189443	1372.903809
10442.744870	0.091245	0.189443	1455.115601
10442.745788	0.091249	0.189443	1538.881958
10442.746678	0.091143	0.189443	1619.998901
10442.747625	0.091256	0.189443	1706.418457
10442.748528	0.091208	0.189443	1788.779785
10442.749417	0.091249	0.189443	1869.899902
10442.750351	0.091230	0.189443	1955.109131
10442.751274	0.091307	0.189443	2039.385864
10443.778516	1.209474	0.200029	530.959045
10443.779463	0.655503	0.200029	1151.720337
10443.780365	0.093589	0.200029	1236.137451
10443.781261	0.091219	0.200029	1317.870117
10443.782142	0.091198	0.200029	1398.215088
10443.783075	0.091300	0.200029	1483.398071
10443.783984	0.091198	0.200029	1566.296631
10443.784881	0.091285	0.200029	1648.179687
10443.785780	0.091256	0.200029	1730.218872
10443.786712	0.091329	0.200029	1815.337769
10443.787614	0.091113	0.200029	1897.521973
10443.788507	0.091187	0.200029	1978.951538
10444.854733	1.203831	0.188875	523.666321
10444.855632	0.707432	0.188875	1159.647461
10444.856600	0.092963	0.188875	1249.635254
10444.857507	0.091135	0.188875	1332.294922
10444.858399	0.091223	0.188875	1413.666016
10444.859330	0.091179	0.188875	1498.553833
10444.860227	0.091252	0.188875	1580.407227
10444.861121	0.091230	0.188875	1661.967285
10444.862009	0.091263	0.188875	1743.009155
10444.862947	0.091227	0.188875	1828.579956
10444.863835	0.091296	0.188875	1909.651123
10444.864739	0.091252	0.188875	1992.143311
10445.893080	1.219548	0.202483	536.601257
10445.894002	0.692970	0.202483	1175.519531
10445.894904	0.093713	0.202483	1260.048950
10445.895840	0.091179	0.202483	1345.392700
10445.896742	0.091238	0.202483	1427.689209
10445.897641	0.091154	0.202483	1509.636230
10445.898527	0.091252	0.202483	1590.485840
10445.899467	0.091183	0.202483	1676.197754
10445.900368	0.091271	0.202483	1758.432739
10445.901260	0.091183	0.202483	1839.767822
10445.902147	0.091245	0.202483	1920.702271
10445.903099	0.091348	0.202483	2007.665283
10446.969332	1.255752	0.188081	586.436157
10446.970260	0.630648	0.188081	1171.677734
10446.971158	0.093153	0.188081	1255.329224
10446.972043	0.091190	0.188081	1336.032471
10446.972982	0.091252	0.188081	1421.718506
10446.973900	0.091260	0.188081	1505.494995
10446.974795	0.091216	0.188081	1587.133179
10446.975731	0.091315	0.188081	1672.603760
10446.976635	0.091315	0.188081	1755.152222
10446.977535	0.091300	0.188081	1837.322266
10446.978421	0.091241	0.188081	1918.162231
10446.979378	0.091322	0.188081	2005.557373
10448.006667	1.271558	0.204714	640.864990
10448.007587	0.595697	0.204714	1188.906250
10448.008508	0.092585	0.204714	1274.177490
10448.009404	0.091234	0.204714	1355.923218
10448.010346	0.091219	0.204714	1441.851929
10448.011250	0.091263	0.204714	1524.354004
10448.012141	0.091168	0.204714	1605.584839
10448.013065	0.091322	0.204714	1689.966431
10448.013983	0.091143	0.204714	1773.635376
10448.014885	0.091194	0.204714	1855.892212
10448.015774	0.091179	0.204714	1936.950562
10448.016724	0.091307	0.204714	2023.692627
10449.083863	1.221471	0.191135	548.440430
10449.084764	0.705604	0.191135	1184.189941
10449.085704	0.093409	0.191135	1271.994751
10449.086606	0.091165	0.191135	1354.225220
10449.087509	0.091263	0.191135	1436.636108
10449.088397	0.091274	0.191135	1517.687744
10449.089340	0.091399	0.191135	1603.876953
10449.090248	0.091183	0.191135	1686.671021
10449.091137	0.091205	0.191135	1767.752075
10449.092068	0.091355	0.191135	1852.803589
10449.092974	0.091307	0.191135	1935.528076
10449.093869	0.091168	0.191135	2017.123657
10450.121160	1.196433	0.206317	518.055542
10450.122107	0.674440	0.206317	1156.749878
10450.123019	0.093245	0.206317	1241.788940
10450.123912	0.091208	0.206317	1323.238159
10450.124801	0.091318	0.206317	1404.420166
10450.125751	0.091322	0.206317	1491.176147
10450.126648	0.091263	0.206317	1573.039429
10450.127545	0.091238	0.206317	1654.879761
10450.128437	0.091154	0.206317	1736.188721
10450.129379	0.091267	0.206317	1822.162354
10450.130287	0.091267	0.206317	1905.032837
10450.131180	0.091256	0.206317	1986.524536
10451.198454	1.220614	0.193358	589.556580
10451.199391	0.600015	0.193358	1151.770264
10451.200306	0.092692	0.193358	1236.583130
10451.201204	0.091216	0.193358	1318.494873
10451.202141	0.091296	0.193358	1404.039551
10451.203049	0.091256	0.193358	1486.900146
10451.203950	0.091143	0.193358	1569.019653
10451.204841	0.091282	0.193358	1650.351685
10451.205794	0.091362	0.193358	1737.419922
10451.206695	0.091252	0.193358	1819.638428
10451.207592	0.091238	0.193358	1901.478760
10451.208526	0.091263	0.193358	1986.718750
10452.234697	1.200970	0.206430	522.422119
10452.235669	0.659839	0.206430	1163.785400
10452.236574	0.093109	0.206430	1248.049194
10452.237468	0.091135	0.206430	1329.524170
10452.238360	0.091208	0.206430	1410.882202
10452.239290	0.091227	0.206430	1495.723145
10452.240204	0.091135	0.206430	1579.020752
10452.241102	0.091183	0.206430	1660.902954
10452.241988	0.091179	0.206430	1741.687744
10452.242917	0.091278	0.206430	1826.485107
10452.243817	0.091293	0.206430	1908.648560
10452.244703	0.091194	0.206430	1989.446289
10453.312987	1.222324	0.192492	542.711975
10453.313904	0.691447	0.192492	1176.768433
10453.314794	0.093849	0.192492	1260.293945
10453.315707	0.091282	0.192492	1343.634155
10453.316636	0.091128	0.192492	1428.291992
10453.317528	0.091179	0.192492	1509.623779
10453.318417	0.091252	0.192492	1590.747192
10453.319354	0.091212	0.192492	1676.213013
10453.320253	0.091223	0.192492	1758.222656
10453.321171	0.091165	0.192492	1841.911743
10453.322071	0.091150	0.192492	1923.946655
10453.323008	0.091256	0.192492	2009.453613
10454.348289	1.237042	0.204545	609.861877
10454.349210	0.596440	0.204545	1159.183594
10454.350112	0.092996	0.204545	1243.065674
10454.351033	0.091187	0.204545	1327.048462
10454.351923	0.091132	0.204545	1408.155518
10454.352848	0.091121	0.204545	1492.442139
10454.353777	0.091157	0.204545	1577.127197
10454.354682	0.091179	0.204545	1659.644409
10454.355575	0.091230	0.204545	1741.113159
10454.356506	0.091143	0.204545	1825.966919
10454.357421	0.091216	0.204545	1909.429443
10454.358335	0.091172	0.204545	1992.760498
10455.426515	1.220815	0.192081	548.146118
10455.427414	0.713624	0.192081	1189.694336
10455.428370	0.093907	0.192081	1279.469849
10455.429268	0.091300	0.192081	1361.457275
10455.430175	0.091311	0.192081	1444.276367
10455.431068	0.091267	0.192081	1525.777832
10455.432031	0.091326	0.192081	1613.724487
10455.432936	0.091274	0.192081	1696.327881
10455.433836	0.091252	0.192081	1778.455078
10455.434762	0.091307	0.192081	1863.005737
10455.435665	0.091300	0.192081	1945.449707
10455.436579	0.091249	0.192081	2028.851074
10456.461787	1.220347	0.204340	541.833923
10456.462712	0.684697	0.204340	1175.178955
10456.463609	0.093929	0.204340	1259.433716
10456.464521	0.091212	0.204340	1342.619141
10456.465452	0.091322	0.204340	1427.639893
10456.466358	0.091208	0.204340	1510.274780
10456.467255	0.091208	0.204340	1592.088745
10456.468195	0.091373	0.204340	1677.979614
10456.469091	0.091322	0.204340	1759.804199
10456.469986	0.091208	0.204340	1841.435791
10456.470872	0.091208	0.204340	1922.246582
10456.471800	0.091322	0.204340	2006.993408
10457.541089	1.218457	0.195465	561.708679
10457.542040	0.602977	0.195465	1135.140137
10457.542948	0.092853	0.195465	1219.450439
10457.543850	0.091252	0.195465	1301.760132
10457.544789	0.091216	0.195465	1387.411743
10457.545689	0.091252	0.195465	1469.538940
10457.546586	0.091285	0.195465	1551.421997
10457.547471	0.091176	0.195465	1632.112305
10457.548405	0.091241	0.195465	1717.331787
10457.549313	0.091355	0.195465	1800.282104
10457.550210	0.091267	0.195465	1882.148682
10457.551128	0.091223	0.195465	1965.891479
10458.576341	1.216355	0.205169	541.277954
10458.577234	0.719377	0.205169	1183.682007
10458.578208	0.093021	0.205169	1274.284668
10458.579109	0.091267	0.205169	1356.516357
10458.580009	0.091249	0.205169	1438.640259
10458.580898	0.091238	0.205169	1519.750610
10458.581840	0.091344	0.205169	1605.796631
10458.582746	0.091201	0.205169	1688.424927
10458.583637	0.091176	0.205169	1769.662354
10458.584567	0.091370	0.205169	1854.636108
10458.585474	0.091271	0.205169	1937.418701
10458.586374	0.091146	0.205169	2019.450317
10459.655632	1.216809	0.195936	541.480103
10459.656537	0.710673	0.195936	1184.638794
10459.657425	0.094534	0.195936	1268.584717
10459.658382	0.091267	0.195936	1355.927368
10459.659289	0.091271	0.195936	1438.709961
10459.660186	0.091187	0.195936	1520.504272
10459.661111	0.091267	0.195936	1604.926392
10459.662008	0.091285	0.195936	1686.809448
10459.662902	0.091198	0.195936	1768.340088
10459.663787	0.091190	0.195936	1849.043457
10459.664735	0.091333	0.195936	1935.627197
10459.665631	0.091234	0.195936	2017.372925
10460.689865	1.196404	0.205870	516.846497
10460.690796	0.721498	0.205870	1188.561035
10460.691718	0.093365	0.205870	1274.644043
10460.692625	0.091073	0.205870	1357.247314
10460.693520	0.091187	0.205870	1438.859253
10460.694445	0.091285	0.205870	1523.298218
10460.695343	0.091201	0.205870	1605.196899
10460.696237	0.091190	0.205870	1686.720947
10460.697122	0.091311	0.205870	1767.531250
10460.698052	0.091252	0.205870	1852.395996
10460.698944	0.091256	0.205870	1933.796387
10460.699844	0.091230	0.205870	2015.903809
10461.769180	1.225583	0.197093	553.963684
10461.770081	0.706703	0.197093	1190.702881
10461.770966	0.094600	0.197093	1274.423584
10461.771925	0.091139	0.197093	1361.825806
10461.772825	0.091205	0.197093	1443.910156
10461.773750	0.091267	0.197093	1528.332275
10461.774638	0.091263	0.197093	1609.374146
10461.775581	0.091187	0.197093	1695.363037
10461.776480	0.091172	0.197093	1777.326538
10461.777372	0.091223	0.197093	1858.697632
10461.778298	0.091289	0.197093	1943.231323
10461.779224	0.091274	0.197093	2027.751465
10462.804424	1.199418	0.206906	522.946106
10462.805385	0.682496	0.206906	1178.825073
10462.806298	0.093160	0.206906	1263.880493
10462.807215	0.091212	0.206906	1347.522095
10462.808100	0.091238	0.206906	1428.267578
10462.809054	0.091315	0.206906	1515.381836
10462.809959	0.091190	0.206906	1597.908936
10462.810871	0.091234	0.206906	1681.114502
10462.811758	0.091234	0.206906	1762.039185
10462.812708	0.091194	0.206906	1848.673340
10462.813625	0.091267	0.206906	1932.365234
10462.814512	0.091179	0.206906	2013.241211
10463.883724	1.220083	0.197286	539.276672
10463.884699	0.591412	0.197286	1115.903809
10463.885619	0.092633	0.197286	1201.126221
10463.886517	0.091165	0.197286	1282.991943
10463.887444	0.091256	0.197286	1367.586304
10463.888349	0.091384	0.197286	1450.289062
10463.889253	0.091241	0.197286	1532.771362
10463.890140	0.091154	0.197286	1613.624634
10463.891088	0.091355	0.197286	1700.229126
10463.891993	0.091205	0.197286	1782.769531
10463.892885	0.091161	0.197286	1864.085083
10463.893798	0.091263	0.197286	1947.408569
10464.918992	1.209924	0.207852	537.206421
10464.919886	0.730272	0.207852	1190.069824
10464.920828	0.093735	0.207852	1278.368530
10464.921741	0.091227	0.207852	1361.658569
10464.922644	0.091267	0.207852	1444.072754
10464.923531	0.091241	0.207852	1525.003906
10464.924468	0.091362	0.207852	1610.610352
10464.925371	0.091223	0.207852	1692.984863
10464.926264	0.091263	0.207852	1774.483154
10464.927181	0.091289	0.207852	1858.195190
10464.928091	0.091348	0.207852	1941.321533
10464.928994	0.091241	0.207852	2023.712524
10465.996231	1.201260	0.197733	523.749268
10465.997191	0.663593	0.197733	1160.798096
10465.998091	0.093384	0.197733	1244.843506
10465.998982	0.091135	0.197733	1326.045044
10465.999868	0.091198	0.197733	1406.846069
10466.000804	0.091252	0.197733	1492.258301
10466.001712	0.091238	0.197733	1575.102173
10466.002619	0.091095	0.197733	1657.725342
10466.003518	0.091201	0.197733	1739.715210
10466.004463	0.091388	0.197733	1826.076782
10466.005368	0.091304	0.197733	1908.706665
10466.006259	0.091194	0.197733	1989.960327
10467.032523	1.210616	0.207107	533.881836
10467.033417	0.714712	0.207107	1172.834229
10467.034378	0.093497	0.207107	1262.685181
10467.035295	0.091187	0.207107	1346.303223
10467.036182	0.091223	0.207107	1427.218140
10467.037118	0.091307	0.207107	1512.681885
10467.038022	0.091238	0.207107	1595.160889
10467.038929	0.091296	0.207107	1677.966675
10467.039820	0.091183	0.207107	1759.210571
10467.040766	0.091234	0.207107	1845.518066
10467.041668	0.091322	0.207107	1927.890503
10467.042561	0.091278	0.207107	2009.401855
10468.109767	1.205797	0.200251	528.139099
10468.110731	0.622815	0.200251	1128.532715
10468.111645	0.092930	0.200251	1213.470459
10468.112538	0.091183	0.200251	1294.896729
10468.113470	0.091256	0.200251	1379.947388
10468.114377	0.091285	0.200251	1462.743286
10468.115288	0.091165	0.200251	1545.794189
10468.116179	0.091179	0.200251	1627.034912
10468.117125	0.091260	0.200251	1713.366699
10468.118024	0.091205	0.200251	1795.359863
10468.118923	0.091172	0.200251	1877.323364
10468.119813	0.091267	0.200251	1958.551025
10469.147134	1.229429	0.205907	606.108337
10469.148062	0.580162	0.205907	1144.499023
10469.148979	0.092373	0.205907	1229.205078
10469.149870	0.091157	0.205907	1310.426147
10469.150825	0.091154	0.205907	1397.477783
10469.151727	0.091172	0.205907	1479.714844
10469.152623	0.091227	0.205907	1561.454102
10469.153511	0.091249	0.205907	1642.483032
10469.154462	0.091285	0.205907	1729.295410
10469.155356	0.091128	0.205907	1810.763794
10469.156244	0.091066	0.205907	1891.630127
10469.157171	0.091176	0.205907	1976.149902
10470.223310	1.205208	0.201214	532.701782
10470.224201	0.724413	0.201214	1178.153564
10470.225157	0.093351	0.201214	1267.396973
10470.226064	0.091198	0.201214	1350.113159
10470.226958	0.091183	0.201214	1431.630615
10470.227892	0.091252	0.201214	1516.860352
10470.228797	0.091121	0.201214	1599.324463
10470.229720	0.091165	0.201214	1683.469360
10470.230609	0.091143	0.201214	1764.495117
10470.231568	0.091113	0.201214	1851.872803
10470.232464	0.091168	0.201214	1933.559570
10470.233350	0.091198	0.201214	2014.360596
10471.262668	1.205464	0.211039	529.198669
10471.263635	0.628008	0.211039	1136.482178
10471.264526	0.093267	0.211039	1219.582764
10471.265427	0.091113	0.211039	1301.675781
10471.266321	0.091117	0.211039	1383.134277
10471.267268	0.091384	0.211039	1469.675171
10471.268171	0.091289	0.211039	1552.109253
10471.269067	0.091300	0.211039	1633.914062
10471.269996	0.091234	0.211039	1718.670532
10471.270900	0.091285	0.211039	1801.192505
10471.271794	0.091260	0.211039	1882.778687
10471.272678	0.091179	0.211039	1963.381104
10472.338883	1.194679	0.204682	516.101318
10472.339830	0.693505	0.204682	1172.850220
10472.340746	0.093138	0.204682	1258.165039
10472.341650	0.091176	0.204682	1340.587769
10472.342538	0.091219	0.204682	1421.590698
10472.343484	0.091293	0.204682	1507.953613
10472.344380	0.091205	0.204682	1589.673096
10472.345278	0.091194	0.204682	1671.565186
10472.346164	0.091165	0.204682	1752.336914
10472.347103	0.091311	0.204682	1838.078003
10472.348021	0.091212	0.204682	1921.810791
10472.348912	0.091201	0.204682	2003.071045
10473.376246	1.223881	0.205218	588.686584
10473.377182	0.586351	0.205218	1137.511475
10473.378097	0.092670	0.205218	1222.304199
10473.378994	0.091161	0.205218	1304.075562
10473.379930	0.091227	0.205218	1389.463867
10473.380834	0.091227	0.205218	1471.932861
10473.381737	0.091205	0.205218	1554.290771
10473.382622	0.091183	0.205218	1634.987549
10473.383549	0.091300	0.205218	1719.622681
10473.384457	0.091271	0.205218	1802.496582
10473.385356	0.091285	0.205218	1884.562134
10473.386292	0.091212	0.205218	1969.936768
10474.452432	1.211730	0.202152	538.007935
10474.453406	0.609346	0.202152	1131.510742
10474.454311	0.092834	0.202152	1215.525879
10474.455208	0.091216	0.202152	1297.346436
10474.456126	0.091282	0.202152	1381.143066
10474.457040	0.091381	0.202152	1464.664917
10474.457949	0.091183	0.202152	1547.550171
10474.458846	0.091106	0.202152	1629.272217
10474.459788	0.091271	0.202152	1715.249268
10474.460686	0.091282	0.202152	1797.220215
10474.461584	0.091311	0.202152	1879.217529
10474.462471	0.091154	0.202152	1960.070801
10475.490771	1.213531	0.205685	533.953857
10475.491679	0.708640	0.205685	1177.399048
10475.492566	0.094493	0.205685	1261.214722
10475.493513	0.091293	0.205685	1347.668945
10475.494430	0.091157	0.205685	1431.260132
10475.495331	0.091198	0.205685	1513.429077
10475.496218	0.091351	0.205685	1594.457642
10475.497172	0.091307	0.205685	1681.564819
10475.498072	0.091227	0.205685	1763.668945
10475.498957	0.091110	0.205685	1844.300903
10475.499900	0.091315	0.205685	1930.410645
10475.500796	0.091201	0.205685	2012.126953
10476.565963	1.205544	0.203083	528.028503
10476.566946	0.588647	0.203083	1106.668945
10476.567847	0.092897	0.203083	1190.368896
10476.568736	0.091219	0.203083	1271.463013
10476.569653	0.091271	0.203083	1355.158325
10476.570573	0.091179	0.203083	1439.043213
10476.571466	0.091234	0.203083	1520.515259
10476.572356	0.091216	0.203083	1601.697388
10476.573279	0.091252	0.203083	1685.923340
10476.574194	0.091117	0.203083	1769.295288
10476.575098	0.091208	0.203083	1851.747803
10476.575986	0.091146	0.203083	1932.685669
10477.604327	1.242700	0.207300	574.127502
10477.605220	0.691527	0.207300	1191.661133
10477.606182	0.093336	0.207300	1281.450562
10477.607085	0.091252	0.207300	1363.851562
10477.607979	0.091223	0.207300	1445.405029
10477.608871	0.091208	0.207300	1526.763062
10477.609821	0.091307	0.207300	1613.505127
10477.610726	0.091165	0.207300	1696.009033
10477.611624	0.091252	0.207300	1777.953735
10477.612556	0.091282	0.207300	1863.028320
10477.613458	0.091271	0.207300	1945.354492
10477.614348	0.091337	0.207300	2026.644165
10478.680534	1.217824	0.203220	545.584961
10478.681436	0.708651	0.203220	1184.788330
10478.682355	0.094453	0.203220	1271.590698
10478.683278	0.091230	0.203220	1355.796387
10478.684186	0.091154	0.203220	1438.563843
10478.685085	0.091219	0.203220	1520.570190
10478.686027	0.091230	0.203220	1606.509277
10478.686928	0.091205	0.203220	1688.684814
10478.687829	0.091124	0.203220	1770.787842
10478.688717	0.091161	0.203220	1851.738770
10478.689651	0.091190	0.203220	1936.910400
10478.690559	0.091168	0.203220	2019.691162
10479.718895	1.218289	0.209721	577.468750
10479.719840	0.591204	0.209721	1136.156250
10479.720754	0.092596	0.209721	1220.789429
10479.721651	0.091219	0.209721	1302.613281
10479.722586	0.091201	0.209721	1387.886353
10479.723491	0.091091	0.209721	1470.323975
10479.724390	0.091187	0.209721	1552.300659
10479.725275	0.091219	0.209721	1633.029907
10479.726219	0.091256	0.209721	1719.175659
10479.727118	0.091172	0.209721	1801.139160
10479.728013	0.091157	0.209721	1882.724854
10479.728930	0.091245	0.209721	1966.396606
10480.794076	1.227869	0.200875	559.908142
10480.794973	0.708809	0.200875	1195.709473
10480.795926	0.093376	0.200875	1284.697266
10480.796817	0.091212	0.200875	1365.967285
10480.797714	0.091179	0.200875	1447.755005
10480.798603	0.091219	0.200875	1528.849121
10480.799563	0.091267	0.200875	1616.465576
10480.800473	0.091227	0.200875	1699.481934
10480.801367	0.091198	0.200875	1781.012451
10480.802299	0.091238	0.200875	1866.046021
10480.803196	0.091249	0.200875	1947.896240
10480.804092	0.091150	0.200875	2029.566528
10481.832458	1.282855	0.211534	643.993286
10481.833379	0.589995	0.211534	1187.378784
10481.834270	0.092714	0.211534	1269.986572
10481.835156	0.091110	0.211534	1350.709717
10481.836114	0.091150	0.211534	1438.031372
10481.837025	0.091135	0.211534	1521.055542
10481.837921	0.091249	0.211534	1602.814453
10481.838845	0.091223	0.211534	1687.104614
10481.839754	0.091208	0.211534	1770.013184
10481.840658	0.091069	0.211534	1852.339844
10481.841551	0.091132	0.211534	1933.720337
10481.842491	0.091249	0.211534	2019.494141
10482.909680	1.236493	0.202475	588.570679
10482.910605	0.629125	0.202475	1170.511108
10482.911496	0.093197	0.202475	1253.549683
10482.912426	0.091241	0.202475	1338.404297
10482.913342	0.091205	0.202475	1421.947876
10482.914238	0.091168	0.202475	1503.634644
10482.915129	0.091271	0.202475	1584.956909
10482.916074	0.091168	0.202475	1671.110840
10482.916975	0.091110	0.202475	1753.200562
10482.917873	0.091285	0.202475	1835.174805
10482.918762	0.091223	0.202475	1916.272217
10482.919698	0.091208	0.202475	2001.643311
10483.946961	1.216945	0.210289	542.757263
10483.947866	0.708380	0.210289	1183.841309
10483.948820	0.093823	0.210289	1273.348633
10483.949717	0.091091	0.210289	1355.057495
10483.950621	0.091245	0.210289	1437.543091
10483.951509	0.091113	0.210289	1518.451660
10483.952447	0.091245	0.210289	1604.039551
10483.953353	0.091194	0.210289	1686.661133
10483.954249	0.091187	0.210289	1768.364258
10483.955170	0.091212	0.210289	1852.370605
10483.956083	0.091249	0.210289	1935.680786
10483.956993	0.091146	0.210289	2018.623901
10485.024202	1.196298	0.202035	520.389465
10485.025166	0.696592	0.202035	1191.903931
10485.026061	0.093164	0.202035	1275.285767
10485.026957	0.091165	0.202035	1356.969238
10485.027844	0.091190	0.202035	1437.854980
10485.028784	0.091326	0.202035	1523.701172
10485.029689	0.091263	0.202035	1606.294556
10485.030598	0.091168	0.202035	1689.166504
10485.031485	0.091267	0.202035	1770.120361
10485.032427	0.091234	0.202035	1856.062866
10485.033338	0.091212	0.202035	1939.157104
10485.034233	0.091201	0.202035	2020.782104
10486.059477	1.224386	0.211196	543.627380
10486.060386	0.701587	0.211196	1181.369873
10486.061274	0.094351	0.211196	1265.153198
10486.062214	0.091219	0.211196	1350.899536
10486.063118	0.091176	0.211196	1433.322266
10486.064016	0.091252	0.211196	1515.266968
10486.064935	0.091296	0.211196	1599.168335
10486.065851	0.091256	0.211196	1682.758911
10486.066760	0.091106	0.211196	1765.574219
10486.067651	0.091106	0.211196	1846.749634
10486.068585	0.091208	0.211196	1931.938354
10486.069479	0.091216	0.211196	2013.485352
10487.137736	1.200458	0.204319	524.600037
10487.138697	0.627642	0.204319	1127.763672
10487.139599	0.093160	0.204319	1211.794312
10487.140506	0.091230	0.204319	1294.540283
10487.141397	0.091205	0.204319	1375.803833
10487.142340	0.091271	0.204319	1461.872192
10487.143242	0.091077	0.204319	1544.023315
10487.144132	0.091201	0.204319	1625.192383
10487.145063	0.091223	0.204319	1710.121094
10487.145977	0.091172	0.204319	1793.452148
10487.146873	0.091073	0.204319	1875.053589
10487.147761	0.091117	0.204319	1955.965454
10488.174034	1.210939	0.213286	537.656799
10488.174926	0.718019	0.213286	1178.129517
10488.175901	0.093073	0.213286	1268.875244
10488.176798	0.091117	0.213286	1350.607178
10488.177685	0.091121	0.213286	1431.431152
10488.178627	0.091256	0.213286	1517.394409
10488.179522	0.091230	0.213286	1599.045654
10488.180434	0.091172	0.213286	1682.194458
10488.181328	0.091234	0.213286	1763.757812
10488.182266	0.091227	0.213286	1849.328613
10488.183177	0.091190	0.213286	1932.402832
10488.184077	0.091161	0.213286	2014.447632
10489.252369	1.241437	0.206072	630.649841
10489.253277	0.609866	0.206072	1184.407959
10489.254188	0.092783	0.206072	1268.933472
10489.255084	0.091198	0.206072	1350.646484
10489.256017	0.091256	0.206072	1435.788452
10489.256921	0.091241	0.206072	1518.270752
10489.257843	0.091212	0.206072	1602.368408
10489.258729	0.091274	0.206072	1683.237549
10489.259676	0.091066	0.206072	1769.476807
10489.260569	0.091296	0.206072	1851.004517
10489.261460	0.091238	0.206072	1932.297363
10489.262400	0.091201	0.206072	2018.026489
10490.287561	1.203776	0.211574	527.253723
10490.288520	0.628751	0.211574	1130.226074
10490.289433	0.093116	0.211574	1215.241455
10490.290323	0.091117	0.211574	1296.335571
10490.291249	0.091256	0.211574	1380.838745
10490.292155	0.091249	0.211574	1463.510132
10490.293068	0.091201	0.211574	1546.776855
10490.293962	0.091256	0.211574	1628.359863
10490.294905	0.091219	0.211574	1714.379883
10490.295808	0.091249	0.211574	1796.777588
10490.296701	0.091201	0.211574	1878.220215
10490.297591	0.091176	0.211574	1959.366455
10491.366853	1.194163	0.204114	514.684082
10491.367791	0.718927	0.204114	1189.037598
10491.368693	0.093750	0.204114	1273.600098
10491.369608	0.091080	0.204114	1356.938599
10491.370500	0.091183	0.204114	1438.273682
10491.371432	0.091249	0.204114	1523.317505
10491.372326	0.091241	0.204114	1604.887329
10491.373224	0.091219	0.204114	1686.802490
10491.374119	0.091227	0.204114	1768.450439
10491.375056	0.091289	0.204114	1853.988281
10491.375962	0.091282	0.204114	1936.689575
10491.376859	0.091205	0.204114	2018.500244
10492.403151	1.210023	0.217585	537.250305
10492.404044	0.719758	0.217585	1179.994385
10492.405008	0.093241	0.217585	1269.878662
10492.405915	0.091198	0.217585	1352.594849
10492.406802	0.091161	0.217585	1433.454590
10492.407737	0.091285	0.217585	1518.806396
10492.408646	0.091263	0.217585	1601.764893
10492.409539	0.091260	0.217585	1683.259888
10492.410429	0.091062	0.217585	1764.305054
10492.411359	0.091271	0.217585	1849.186890
10492.412263	0.091256	0.217585	1931.682373
10492.413162	0.091205	0.217585	2013.675537
10493.481438	1.225675	0.202051	546.651062
10493.482360	0.679318	0.202051	1172.981934
10493.483254	0.093948	0.202051	1256.971191
10493.484171	0.091256	0.202051	1340.653076
10493.485092	0.091333	0.202051	1424.770752
10493.485996	0.091157	0.202051	1507.176880
10493.486896	0.091322	0.202051	1589.366699
10493.487842	0.091263	0.202051	1675.701904
10493.488741	0.091238	0.202051	1757.724731
10493.489638	0.091300	0.202051	1839.620850
10493.490525	0.091168	0.202051	1920.487061
10493.491456	0.091278	0.202051	2005.466919
10494.515669	1.213301	0.214773	541.132141
10494.516576	0.709600	0.214773	1184.739014
10494.517467	0.094541	0.214773	1268.975098
10494.518433	0.091315	0.214773	1357.185059
10494.519330	0.091139	0.214773	1438.936646
10494.520246	0.091227	0.214773	1522.500366
10494.521141	0.091293	0.214773	1604.207397
10494.522079	0.091135	0.214773	1689.692261
10494.522977	0.091359	0.214773	1771.732300
10494.523864	0.091238	0.214773	1852.660156
10494.524798	0.091241	0.214773	1937.879639
10494.525717	0.091143	0.214773	2021.639648
10495.594977	1.234731	0.204299	558.098633
10495.595902	0.661337	0.204299	1169.834961
10495.596796	0.093651	0.204299	1253.559082
10495.597682	0.091161	0.204299	1334.327637
10495.598633	0.091241	0.204299	1421.098267
10495.599532	0.091029	0.204299	1502.933350
10495.600421	0.091278	0.204299	1584.079590
10495.601356	0.091329	0.204299	1669.472534
10495.602267	0.091190	0.204299	1752.546753
10495.603171	0.091230	0.204299	1835.019043
10495.604059	0.091201	0.204299	1916.005737
10495.605007	0.091271	0.204299	2002.530396
10496.630223	1.210206	0.217347	537.331604
10496.631115	0.719235	0.217347	1178.888916
10496.632093	0.093003	0.217347	1269.845825
10496.632987	0.091176	0.217347	1351.356812
10496.633874	0.091165	0.217347	1432.219727
10496.634787	0.091263	0.217347	1515.543213
10496.635714	0.091205	0.217347	1600.090088
10496.636617	0.091143	0.217347	1682.391846
10496.637507	0.091223	0.217347	1763.580444
10496.638453	0.091223	0.217347	1849.877563
10496.639370	0.091080	0.217347	1933.398193
10496.640287	0.091227	0.217347	2017.053223
10497.709520	1.200769	0.205371	527.137634
10497.710416	0.733206	0.205371	1184.089844
10497.711345	0.094962	0.205371	1272.309692
10497.712266	0.091227	0.205371	1356.329590
10497.713163	0.091249	0.205371	1438.179687
10497.714049	0.091223	0.205371	1519.003418
10497.714998	0.091260	0.205371	1605.608887
10497.715913	0.091238	0.205371	1689.091431
10497.716835	0.091187	0.205371	1773.165405
10497.717720	0.091293	0.205371	1853.959473
10497.718655	0.091267	0.205371	1939.294189
10497.719556	0.091091	0.205371	2021.367432
10498.744786	1.216512	0.218193	537.698486
10498.745689	0.718103	0.218193	1186.145508
10498.746581	0.094673	0.218193	1270.593750
10498.747550	0.091274	0.218193	1359.038696
10498.748449	0.091099	0.218193	1440.936401
10498.749348	0.091249	0.218193	1522.968994
10498.750238	0.091234	0.218193	1604.167358
10498.751173	0.091377	0.218193	1689.604858
10498.752071	0.091256	0.218193	1771.552856
10498.752969	0.091293	0.218193	1853.533691
10498.753895	0.091329	0.218193	1938.104614
10498.754799	0.091311	0.218193	2020.649780
10499.823058	1.201725	0.204887	529.960693
10499.824019	0.627660	0.204887	1133.141846
10499.824916	0.093391	0.204887	1216.913696
10499.825812	0.091278	0.204887	1298.698853
10499.826695	0.091304	0.204887	1379.320068
10499.827632	0.091344	0.204887	1464.909424
10499.828543	0.091154	0.204887	1547.950317
10499.829445	0.091267	0.204887	1630.273193
10499.830379	0.091388	0.204887	1715.629517
10499.831281	0.091329	0.204887	1798.008545
10499.832182	0.091241	0.204887	1880.217041
10499.833070	0.091230	0.204887	1961.229736
10500.859335	1.197400	0.217770	522.066345
10500.860305	0.682756	0.217770	1184.340088
10500.861212	0.093116	0.217770	1268.796753
10500.862105	0.091260	0.217770	1350.291748
10500.862998	0.091179	0.217770	1431.714722
10500.863933	0.091348	0.217770	1517.124756
10500.864847	0.091230	0.217770	1600.509399
10500.865753	0.091154	0.217770	1683.094482
10500.866646	0.091249	0.217770	1764.579590
10500.867579	0.091238	0.217770	1849.704468
10500.868482	0.091198	0.217770	1932.055786
10500.869372	0.091161	0.217770	2013.188965
10501.937618	1.214645	0.206144	539.302307
10501.938533	0.696211	0.206144	1176.335327
10501.939425	0.094142	0.206144	1260.309814
10501.940363	0.091311	0.206144	1345.959595
10501.941268	0.091176	0.206144	1428.473511
10501.942162	0.091219	0.206144	1510.023682
10501.943047	0.091198	0.206144	1590.733521
10501.944002	0.091296	0.206144	1677.921631
10501.944908	0.091113	0.206144	1760.470215
10501.945798	0.091260	0.206144	1841.691406
10501.946728	0.091179	0.206144	1926.488037
10501.947640	0.091329	0.206144	2009.780396
10502.973910	1.222416	0.217633	540.307739
10502.974837	0.692472	0.217633	1182.229248
10502.975738	0.093885	0.217633	1266.820068
10502.976675	0.091238	0.217633	1352.309814
10502.977578	0.091311	0.217633	1434.763672
10502.978486	0.091198	0.217633	1517.571045
10502.979381	0.091187	0.217633	1599.182983
10502.980326	0.091318	0.217633	1685.478882
10502.981218	0.091208	0.217633	1766.836914
10502.982116	0.091263	0.217633	1848.791504
10502.983004	0.091172	0.217633	1929.752075
10502.983960	0.091289	0.217633	2017.024414
10504.051170	1.230582	0.207937	557.453735
10504.052079	0.683837	0.207937	1179.061279
10504.052969	0.094003	0.207937	1262.723633
10504.053912	0.091212	0.207937	1348.736694
10504.054811	0.091271	0.207937	1430.789062
10504.055709	0.091230	0.207937	1512.713989
10504.056599	0.091252	0.207937	1593.928711
10504.057543	0.091329	0.207937	1680.143555
10504.058446	0.091293	0.207937	1762.580933
10504.059335	0.091150	0.207937	1843.613159
10504.060252	0.091333	0.207937	1927.365479
10504.061167	0.091245	0.207937	2010.854736
10505.089485	1.208756	0.218330	534.270203
10505.090377	0.723226	0.218330	1179.388184
10505.091340	0.093644	0.218330	1269.567139
10505.092237	0.091252	0.218330	1351.420532
10505.093128	0.091128	0.218330	1432.615479
10505.094060	0.091311	0.218330	1517.717407
10505.094972	0.091249	0.218330	1600.936279
10505.095893	0.091245	0.218330	1684.973022
10505.096790	0.091238	0.218330	1766.813354
10505.097738	0.091223	0.218330	1853.292847
10505.098640	0.091183	0.218330	1935.539795
10505.099561	0.091260	0.218330	2019.590088
10506.164702	1.232278	0.205331	560.686401
10506.165603	0.693051	0.205331	1185.124878
10506.166542	0.093988	0.205331	1273.379639
10506.167446	0.091245	0.205331	1355.865234
10506.168346	0.091238	0.205331	1437.979248
10506.169234	0.091216	0.205331	1518.978882
10506.170188	0.091256	0.205331	1606.037231
10506.171090	0.091216	0.205331	1688.313965
10506.171979	0.091194	0.205331	1769.385254
10506.172889	0.091351	0.205331	1852.514893
10506.173818	0.091322	0.205331	1937.353027
10506.174722	0.091201	0.205331	2019.798828
10507.204045	1.211228	0.220912	532.940308
10507.204950	0.718041	0.220912	1182.767212
10507.205838	0.094790	0.220912	1266.940796
10507.206805	0.091318	0.220912	1355.245605
10507.207704	0.091263	0.220912	1437.291382
10507.208598	0.091241	0.220912	1518.861206
10507.209519	0.091304	0.220912	1602.951904
10507.210433	0.091337	0.220912	1686.433594
10507.211334	0.091168	0.220912	1768.576172
10507.212228	0.091271	0.220912	1850.172241
10507.213156	0.091252	0.220912	1934.854492
10507.214057	0.091304	0.220912	2017.119141
10508.278230	1.210583	0.207619	535.077881
10508.279120	0.724724	0.207619	1180.082275
10508.280074	0.093501	0.207619	1269.282227
10508.280979	0.091132	0.207619	1351.756348
10508.281873	0.091293	0.207619	1433.372070
10508.282796	0.091205	0.207619	1517.554077
10508.283704	0.091285	0.207619	1600.441162
10508.284610	0.091113	0.207619	1682.989746
10508.285508	0.091234	0.207619	1764.917969
10508.286445	0.091263	0.207619	1850.431763
10508.287343	0.091267	0.207619	1932.389648
10508.288244	0.091095	0.207619	2014.466187
10509.317605	1.231707	0.223486	566.585022
10509.318511	0.684327	0.223486	1186.585693
10509.319396	0.094120	0.223486	1269.881836
10509.320336	0.091274	0.223486	1355.679810
10509.321240	0.091230	0.223486	1438.152100
10509.322132	0.091219	0.223486	1519.519897
10509.323056	0.091282	0.223486	1603.864258
10509.323977	0.091278	0.223486	1687.931396
10509.324883	0.091227	0.223486	1770.582886
10509.325770	0.091282	0.223486	1851.549805
10509.326706	0.091318	0.223486	1937.023804
10509.327618	0.091230	0.223486	2020.225952
10510.392779	1.201710	0.207264	525.147339
10510.393678	0.718403	0.207264	1170.991943
10510.394639	0.093223	0.207264	1260.578857
10510.395562	0.091304	0.207264	1344.852173
10510.396449	0.091179	0.207264	1425.728149
10510.397393	0.091285	0.207264	1511.901611
10510.398283	0.091165	0.207264	1593.038086
10510.399173	0.091198	0.207264	1674.203857
10510.400099	0.091340	0.207264	1758.785034
10510.401019	0.091362	0.207264	1842.838379
10510.401921	0.091187	0.207264	1925.088623
10510.402809	0.091285	0.207264	2006.150024
10511.432135	1.207756	0.222862	528.997314
10511.433113	0.593588	0.222862	1109.526001
10511.434018	0.092827	0.222862	1193.534546
10511.434914	0.091084	0.222862	1275.145752
10511.435849	0.091355	0.222862	1360.562622
10511.436759	0.091318	0.222862	1443.662354
10511.437653	0.091241	0.222862	1525.232178
10511.438538	0.091227	0.222862	1605.967896
10511.439477	0.091278	0.222862	1691.677979
10511.440378	0.091271	0.222862	1773.912964
10511.441280	0.091168	0.222862	1856.146729
10511.442169	0.091252	0.222862	1937.270142
10512.506343	1.225774	0.204859	556.501343
10512.507270	0.669368	0.204859	1177.005127
10512.508160	0.093563	0.204859	1260.276367
10512.509090	0.091289	0.204859	1345.175171
10512.509993	0.091388	0.204859	1427.698486
10512.510889	0.091190	0.204859	1509.404907
10512.511780	0.091238	0.204859	1590.697754
10512.512721	0.091381	0.204859	1676.686890
10512.513617	0.091260	0.204859	1758.455688
10512.514518	0.091124	0.204859	1840.558594
10512.515402	0.091285	0.204859	1921.254883
10512.516347	0.091329	0.204859	2007.561157
10513.545736	1.234574	0.223780	620.990723
10513.546650	0.592247	0.223780	1162.304687
10513.547547	0.092842	0.223780	1245.583740
10513.548435	0.091212	0.223780	1326.580078
10513.549369	0.091326	0.223780	1411.878296
10513.550272	0.091187	0.223780	1494.219727
10513.551177	0.091263	0.223780	1576.813110
10513.552064	0.091168	0.223780	1657.679321
10513.553001	0.091267	0.223780	1743.196533
10513.553911	0.091099	0.223780	1826.096313
10513.554799	0.091219	0.223780	1907.099243
10513.555725	0.091271	0.223780	1991.615967
10514.620880	1.208774	0.208054	534.278320
10514.621774	0.728141	0.208054	1185.236206
10514.622732	0.093300	0.208054	1274.617187
10514.623635	0.091216	0.208054	1356.985107
10514.624532	0.091198	0.208054	1438.789307
10514.625465	0.091333	0.208054	1524.003052
10514.626372	0.091366	0.208054	1606.871948
10514.627277	0.091256	0.208054	1689.458740
10514.628175	0.091187	0.208054	1771.344238
10514.629104	0.091274	0.208054	1856.138184
10514.630001	0.091282	0.208054	1938.017944
10514.630904	0.091124	0.208054	2020.303101
10515.659221	1.220061	0.224465	539.266968
10515.660144	0.690220	0.224465	1176.339722
10515.661032	0.094178	0.224465	1259.970215
10515.661941	0.091230	0.224465	1342.898682
10515.662861	0.091311	0.224465	1426.904785
10515.663761	0.091245	0.224465	1509.025391
10515.664660	0.091183	0.224465	1590.998779
10515.665592	0.091322	0.224465	1676.110962
10515.666500	0.091263	0.224465	1758.978149
10515.667399	0.091278	0.224465	1841.037109
10515.668290	0.091201	0.224465	1922.297363
10515.669231	0.091245	0.224465	2008.159058
10516.735437	1.209302	0.211115	530.883423
10516.736412	0.622269	0.211115	1137.595947
10516.737307	0.093010	0.211115	1220.840088
10516.738196	0.091223	0.211115	1301.937500
10516.739141	0.091238	0.211115	1388.157227
10516.740050	0.091183	0.211115	1471.042480
10516.740947	0.091179	0.211115	1552.830200
10516.741857	0.091205	0.211115	1635.826538
10516.742776	0.091282	0.211115	1719.714478
10516.743689	0.091161	0.211115	1802.944336
10516.744583	0.091198	0.211115	1884.474854
10516.745527	0.091234	0.211115	1970.599854
10517.773784	1.211602	0.222668	540.374329
10517.774686	0.712914	0.222668	1183.422607
10517.775575	0.094464	0.222668	1267.401245
10517.776509	0.091168	0.222668	1352.552368
10517.777423	0.091230	0.222668	1435.937012
10517.778344	0.091238	0.222668	1519.967041
10517.779233	0.091271	0.222668	1601.106689
10517.780184	0.091267	0.222668	1687.901733
10517.781077	0.091198	0.222668	1769.341064
10517.781997	0.091249	0.222668	1853.289917
10517.782887	0.091256	0.222668	1934.507812
10517.783825	0.091194	0.222668	2020.047607
10518.850004	1.217886	0.212102	546.830688
10518.850906	0.707267	0.212102	1184.785400
10518.851846	0.094343	0.212102	1273.468018
10518.852748	0.091205	0.212102	1355.734741
10518.853642	0.091106	0.212102	1437.183472
10518.854524	0.091216	0.212102	1517.635864
10518.855458	0.091227	0.212102	1602.841675
10518.856361	0.091285	0.212102	1685.272339
10518.857268	0.091289	0.212102	1768.071533
10518.858161	0.091278	0.212102	1849.582886
10518.859110	0.091267	0.212102	1936.195312
10518.860015	0.091168	0.212102	2018.702515
10519.887316	1.209910	0.221017	531.150330
10519.888253	0.705187	0.221017	1191.910400
10519.889172	0.093486	0.221017	1277.824341
10519.890081	0.091168	0.221017	1360.696289
10519.890971	0.091198	0.221017	1441.862061
10519.891897	0.091311	0.221017	1526.416138
10519.892799	0.091230	0.221017	1608.706055
10519.893696	0.091245	0.221017	1690.552979
10519.894583	0.091194	0.221017	1771.441895
10519.895531	0.091296	0.221017	1857.990845
10519.896439	0.091205	0.221017	1940.804810
10519.897337	0.091143	0.221017	2022.650879
10520.963528	1.199260	0.210563	524.076782
10520.964422	0.736014	0.210563	1182.073730
10520.965364	0.093582	0.210563	1270.227539
10520.966279	0.091165	0.210563	1353.643066
10520.967177	0.091245	0.210563	1435.581177
10520.968091	0.091212	0.210563	1518.949097
10520.969005	0.091227	0.210563	1602.330444
10520.969913	0.091208	0.210563	1685.147705
10520.970803	0.091157	0.210563	1766.277588
10520.971747	0.091249	0.210563	1852.416382
10520.972644	0.091208	0.210563	1934.230347
10520.973548	0.091143	0.210563	2016.623291
10522.001878	1.215732	0.222652	536.138000
10522.002803	0.678098	0.222652	1163.378784
10522.003704	0.093776	0.222652	1247.870605
10522.004609	0.091230	0.222652	1330.434204
10522.005544	0.091315	0.222652	1415.813477
10522.006447	0.091187	0.222652	1498.154907
10522.007334	0.091223	0.222652	1579.069824
10522.008285	0.091267	0.222652	1665.864868
10522.009185	0.091333	0.222652	1748.064575
10522.010086	0.091187	0.222652	1830.223633
10522.010972	0.091274	0.222652	1911.092773
10522.011904	0.091179	0.222652	1996.071777
10523.078095	1.220717	0.212284	541.998169
10523.079065	0.604124	0.212284	1127.998047
10523.079962	0.093007	0.212284	1211.424927
10523.080850	0.091154	0.212284	1292.369263
10523.081786	0.091172	0.212284	1377.706177
10523.082688	0.091234	0.212284	1459.999390
10523.083595	0.091128	0.212284	1542.652466
10523.084483	0.091190	0.212284	1623.629395
10523.085410	0.091219	0.212284	1708.189819
10523.086322	0.091150	0.212284	1791.318481
10523.087220	0.091190	0.212284	1873.207275
10523.088109	0.091216	0.212284	1954.298096
10524.115420	1.221002	0.223551	545.787964
10524.116349	0.672825	0.223551	1170.842041
10524.117233	0.093871	0.223551	1253.823853
10524.118164	0.091241	0.223551	1338.769653
10524.119076	0.091172	0.223551	1421.918457
10524.119977	0.091154	0.223551	1504.047852
10524.120865	0.091263	0.223551	1585.089722
10524.121815	0.091282	0.223551	1671.807373
10524.122719	0.091099	0.223551	1754.160522
10524.123615	0.091154	0.223551	1835.834106
10524.124542	0.091223	0.223551	1920.397949
10524.125445	0.091296	0.223551	2002.838623
10525.191639	1.216736	0.211164	535.363770
10525.192562	0.692058	0.211164	1174.133301
10525.193463	0.093765	0.211164	1258.615234
10525.194386	0.091238	0.211164	1342.827759
10525.195294	0.091300	0.211164	1425.728149
10525.196203	0.091208	0.211164	1508.636719
10525.197094	0.091256	0.211164	1589.945923
10525.198031	0.091219	0.211164	1675.418579
10525.198939	0.091241	0.211164	1758.265869
10525.199838	0.091139	0.211164	1840.199707
10525.200726	0.091219	0.211164	1921.202637
10525.201659	0.091267	0.211164	2006.354858
10526.229959	1.193606	0.227603	514.444214
10526.230877	0.730276	0.227603	1184.837402
10526.231817	0.093395	0.227603	1272.628540
10526.232726	0.091077	0.227603	1355.417236
10526.233619	0.091271	0.227603	1436.921997
10526.234557	0.091205	0.227603	1522.472168
10526.235454	0.091187	0.227603	1604.266479
10526.236351	0.091238	0.227603	1686.106812
10526.237234	0.091154	0.227603	1766.595459
10526.238167	0.091315	0.227603	1851.792114
10526.239076	0.091168	0.227603	1934.664062
10526.239971	0.091238	0.227603	2016.321899
10527.307213	1.208060	0.213947	532.754639
10527.308183	0.620530	0.213947	1134.668457
10527.309090	0.093010	0.213947	1219.028809
10527.309979	0.091146	0.213947	1300.057861
10527.310900	0.091172	0.213947	1384.027100
10527.311805	0.091230	0.213947	1466.590698
10527.312700	0.091260	0.213947	1548.268188
10527.313590	0.091194	0.213947	1629.430664
10527.314523	0.091289	0.213947	1714.603394
10527.315418	0.091289	0.213947	1796.307129
10527.316319	0.091230	0.213947	1878.505737
10527.317209	0.091216	0.213947	1959.687866
10528.343499	1.204054	0.228554	527.375610
10528.344486	0.602897	0.228554	1122.434570
10528.345380	0.092908	0.228554	1205.494019
10528.346288	0.091223	0.228554	1288.324585
10528.347177	0.091241	0.228554	1369.438232
10528.348123	0.091223	0.228554	1455.735352
10528.349029	0.091216	0.228554	1538.376831
10528.349926	0.091150	0.228554	1620.138306
10528.350859	0.091165	0.228554	1705.194824
10528.351759	0.091230	0.228554	1787.302246
10528.352654	0.091198	0.228554	1868.924072
10528.353541	0.091238	0.228554	1949.852051
10529.421781	1.215132	0.212839	537.088318
10529.422684	0.724296	0.212839	1191.127319
10529.423573	0.094512	0.212839	1275.148193
10529.424508	0.091154	0.212839	1360.376831
10529.425411	0.091198	0.212839	1442.728149
10529.426304	0.091124	0.212839	1524.102173
10529.427194	0.091267	0.212839	1605.329834
10529.428132	0.091366	0.212839	1691.031128
10529.429043	0.091219	0.212839	1774.132080
10529.429945	0.091238	0.212839	1856.428589
10529.430831	0.091183	0.212839	1937.216553
10529.431781	0.091274	0.212839	2023.927246
10530.457030	1.216172	0.225238	532.683289
10530.458019	0.591764	0.225238	1117.937744
10530.458930	0.092695	0.225238	1202.383179
10530.459821	0.091216	0.225238	1283.656494
10530.460769	0.091150	0.225238	1370.066650
10530.461663	0.091249	0.225238	1451.643066
10530.462557	0.091219	0.225238	1533.193237
10530.463443	0.091245	0.225238	1614.036377
10530.464380	0.091260	0.225238	1699.546753
10530.465278	0.091198	0.225238	1781.442139
10530.466181	0.091135	0.225238	1863.737305
10530.467070	0.091198	0.225238	1944.811890
10531.535313	1.207441	0.214261	538.518860
10531.536209	0.724226	0.214261	1187.425415
10531.537152	0.094636	0.214261	1276.667358
10531.538062	0.091183	0.214261	1359.643799
10531.538967	0.091121	0.214261	1442.107910
10531.539855	0.091187	0.214261	1523.081543
10531.540795	0.091282	0.214261	1608.886353
10531.541702	0.091216	0.214261	1691.619141
10531.542609	0.091168	0.214261	1774.308716
10531.543496	0.091219	0.214261	1855.220459
10531.544442	0.091263	0.214261	1941.555664
10531.545348	0.091194	0.214261	2024.177246
10532.571614	1.235859	0.226515	561.080139
10532.572524	0.683049	0.226515	1182.655029
10532.573412	0.094032	0.226515	1266.155396
10532.574368	0.091256	0.226515	1353.396240
10532.575273	0.091135	0.226515	1435.873657
10532.576170	0.091073	0.226515	1517.566162
10532.577093	0.091267	0.226515	1601.805664
10532.577992	0.091219	0.226515	1683.812012
10532.578886	0.091172	0.226515	1765.319702
10532.579770	0.091227	0.226515	1845.964233
10532.580726	0.091282	0.226515	1933.229614
10532.581632	0.091198	0.226515	2015.854614
10533.649865	1.198436	0.216626	520.121338
10533.650824	0.635552	0.216626	1129.615479
10533.651728	0.093373	0.216626	1214.024536
10533.652621	0.091143	0.216626	1295.414917
10533.653538	0.091234	0.216626	1379.076660
10533.654446	0.091311	0.216626	1461.987061
10533.655348	0.091176	0.216626	1544.227417
10533.656249	0.091274	0.216626	1626.465698
10533.657177	0.091377	0.216626	1711.263550
10533.658092	0.091249	0.216626	1794.756226
10533.658998	0.091205	0.216626	1877.387817
10533.659889	0.091241	0.216626	1958.683960
10534.685153	1.235698	0.225416	565.949768
10534.686049	0.695988	0.225416	1189.554687
10534.687001	0.094113	0.225416	1279.149902
10534.687903	0.091238	0.225416	1361.446411
10534.688797	0.091252	0.225416	1443.026123
10534.689685	0.091165	0.225416	1523.980225
10534.690616	0.091289	0.225416	1608.970337
10534.691523	0.091172	0.225416	1691.663208
10534.692426	0.091143	0.225416	1773.964966
10534.693326	0.091340	0.225416	1856.171265
10534.694259	0.091300	0.225416	1941.354248
10534.695163	0.091241	0.225416	2023.836548
10535.763462	1.237581	0.218161	617.552673
10535.764378	0.592690	0.218161	1160.457031
10535.765277	0.092717	0.218161	1243.809814
10535.766164	0.091132	0.218161	1324.643555
10535.767104	0.091337	0.218161	1410.500000
10535.768006	0.091234	0.218161	1492.793213
10535.768909	0.091179	0.218161	1575.128052
10535.769798	0.091238	0.218161	1656.238403
10535.770746	0.091249	0.218161	1742.742187
10535.771656	0.091157	0.218161	1825.695312
10535.772547	0.091117	0.218161	1906.880493
10535.773479	0.091245	0.218161	1991.920898
10536.799687	1.200732	0.227506	521.117920
10536.800649	0.646860	0.227506	1143.397461
10536.801560	0.093248	0.227506	1228.346680
10536.802461	0.091238	0.227506	1310.551880
10536.803350	0.091263	0.227506	1391.685059
10536.804295	0.091337	0.227506	1477.998169
10536.805187	0.091201	0.227506	1559.349609
10536.806077	0.091285	0.227506	1640.593628
10536.807004	0.091241	0.227506	1725.174438
10536.807914	0.091179	0.227506	1808.147461
10536.808808	0.091304	0.227506	1889.772949
10536.809700	0.091238	0.227506	1971.157104
10537.876939	1.203128	0.218632	528.172974
10537.877926	0.592529	0.218632	1112.999390
10537.878818	0.092933	0.218632	1195.895996
10537.879709	0.091216	0.218632	1277.169312
10537.880638	0.091205	0.218632	1361.898560
10537.881551	0.091139	0.218632	1445.108398
10537.882450	0.091249	0.218632	1527.141113
10537.883338	0.091282	0.218632	1608.199341
10537.884262	0.091318	0.218632	1692.577515
10537.885178	0.091194	0.218632	1776.111084
10537.886101	0.091165	0.218632	1860.255981
10537.886995	0.091223	0.218632	1941.809448
10538.914273	1.231348	0.225951	557.800476
10538.915178	0.695936	0.225951	1187.622803
10538.916061	0.094358	0.225951	1270.940796
10538.917012	0.091300	0.225951	1357.767090
10538.917916	0.091205	0.225951	1440.216309
10538.918814	0.091282	0.225951	1522.187256
10538.919744	0.091289	0.225951	1607.086060
10538.920652	0.091318	0.225951	1690.003174
10538.921547	0.091157	0.225951	1771.588867
10538.922436	0.091201	0.225951	1852.666748
10538.923391	0.091274	0.225951	1939.833862
10538.924290	0.091293	0.225951	2021.906006
10539.991518	1.218398	0.216610	543.405701
10539.992426	0.697947	0.216610	1177.141357
10539.993317	0.094233	0.216610	1261.103271
10539.994262	0.091212	0.216610	1347.298706
10539.995183	0.091238	0.216610	1431.328735
10539.996098	0.091370	0.216610	1514.931885
10539.996985	0.091256	0.216610	1595.876099
10539.997929	0.091146	0.216610	1681.918091
10539.998830	0.091223	0.216610	1764.110107
10539.999747	0.091201	0.216610	1847.741577
10540.000633	0.091168	0.216610	1928.516602
10540.001568	0.091219	0.216610	2013.806763
10541.028806	1.195529	0.228006	517.663818
10541.029743	0.678193	0.228006	1153.130981
10541.030656	0.093457	0.228006	1238.457275
10541.031560	0.091172	0.228006	1320.876709
10541.032448	0.091267	0.228006	1401.921875
10541.033398	0.091179	0.228006	1488.542114
10541.034308	0.091161	0.228006	1571.498535
10541.035200	0.091176	0.228006	1652.827148
10541.036125	0.091238	0.228006	1737.222168
10541.037043	0.091344	0.228006	1821.075928
10541.037952	0.091212	0.228006	1903.987793
10541.038845	0.091322	0.228006	1985.538330
10542.106105	1.226818	0.219575	598.687012
10542.107032	0.606746	0.219575	1161.140137
10542.107927	0.092900	0.219575	1244.286011
10542.108817	0.091201	0.219575	1325.455078
10542.109749	0.091326	0.219575	1410.570557
10542.110652	0.091300	0.219575	1493.014526
10542.111551	0.091230	0.219575	1575.030762
10542.112437	0.091274	0.219575	1655.899902
10542.113388	0.091340	0.219575	1742.764526
10542.114297	0.091238	0.219575	1825.699707
10542.115198	0.091249	0.219575	1907.914795
10542.116118	0.091318	0.219575	1991.927734
10543.143401	1.231421	0.230314	565.222168
10543.144327	0.658967	0.230314	1175.425781
10543.145214	0.093636	0.230314	1258.481323
10543.146148	0.091168	0.230314	1343.632446
10543.147052	0.091293	0.230314	1426.161133
10543.147954	0.091205	0.230314	1508.427856
10543.148841	0.091315	0.230314	1589.423950
10543.149790	0.091322	0.230314	1676.088501
10543.150689	0.091223	0.230314	1758.098145
10543.151594	0.091208	0.230314	1840.641846
10543.152495	0.091271	0.230314	1922.876831
10543.153428	0.091300	0.230314	2008.059814
10544.219613	1.224430	0.220594	547.320190
10544.220534	0.676428	0.220594	1170.310547
10544.221436	0.093735	0.220594	1254.859863
10544.222323	0.091249	0.220594	1335.797485
10544.223269	0.091300	0.220594	1422.167358
10544.224177	0.091084	0.220594	1504.871582
10544.225067	0.091267	0.220594	1586.099243
10544.225998	0.091245	0.220594	1671.048462
10544.226893	0.091403	0.220594	1752.853760
10544.227790	0.091223	0.220594	1834.680908
10544.228678	0.091212	0.220594	1915.677246
10544.229611	0.091359	0.220594	2000.914795
10545.256915	1.217959	0.225525	541.991699
10545.257817	0.717726	0.225525	1189.380371
10545.258707	0.094589	0.225525	1273.564209
10545.259670	0.091315	0.225525	1361.500244
10545.260569	0.091285	0.225525	1443.565796
10545.261459	0.091208	0.225525	1524.741333
10545.262377	0.091326	0.225525	1608.578369
10545.263289	0.091278	0.225525	1691.823975
10545.264194	0.091230	0.225525	1774.387573
10545.265085	0.091359	0.225525	1855.788086
10545.266011	0.091333	0.225525	1940.362427
10545.266918	0.091366	0.225525	2023.231323
10546.334172	1.222658	0.225259	550.195923
10546.335070	0.712947	0.225259	1190.422119
10546.336023	0.093413	0.225259	1279.444824
10546.336914	0.091271	0.225259	1360.767090
10546.337818	0.091304	0.225259	1443.305664
10546.338706	0.091198	0.225259	1524.289062
10546.339651	0.091362	0.225259	1610.626465
10546.340559	0.091249	0.225259	1693.480347
10546.341453	0.091326	0.225259	1775.125488
10546.342379	0.091219	0.225259	1859.594727
10546.343277	0.091443	0.225259	1941.710449
10546.344178	0.091263	0.225259	2023.938843
10547.371468	1.198524	0.225859	523.755066
10547.372401	0.673206	0.225859	1151.855835
10547.373313	0.093534	0.225859	1237.158813
10547.374215	0.091282	0.225859	1319.494995
10547.375106	0.091190	0.225859	1400.745483
10547.376049	0.091377	0.225859	1486.913940
10547.376951	0.091241	0.225859	1569.213745
10547.377848	0.091263	0.225859	1651.077026
10547.378750	0.091333	0.225859	1733.459351
10547.379673	0.091289	0.225859	1817.719116
10547.380582	0.091285	0.225859	1900.697510
10547.381470	0.091315	0.225859	1981.784912
10548.447699	1.215604	0.223309	542.159485
10548.448597	0.700232	0.223309	1170.967773
10548.449560	0.093091	0.223309	1260.614258
10548.450463	0.091154	0.223309	1342.925903
10548.451358	0.091260	0.223309	1424.603394
10548.452291	0.091267	0.223309	1509.755615
10548.453191	0.091282	0.223309	1591.909180
10548.454084	0.091128	0.223309	1673.286377
10548.454971	0.091154	0.223309	1754.139648
10548.455922	0.091230	0.223309	1840.899780
10548.456824	0.091249	0.223309	1923.206177
10548.457725	0.091223	0.223309	2005.398193
10549.486030	1.209657	0.228006	535.878052
10549.487027	0.553396	0.228006	1087.613892
10549.487931	0.092329	0.228006	1171.079346
10549.488818	0.091190	0.228006	1251.965088
10549.489758	0.091289	0.228006	1337.776855
10549.490658	0.091249	0.228006	1419.900757
10549.491572	0.091230	0.228006	1503.285400
10549.492470	0.091201	0.228006	1585.184082
10549.493409	0.091165	0.228006	1670.787598
10549.494309	0.091128	0.228006	1752.802734
10549.495200	0.091245	0.228006	1834.102173
10549.496117	0.091304	0.228006	1917.827637
10550.561229	1.207727	0.220251	528.984436
10550.562185	0.636343	0.220251	1137.328125
10550.563092	0.093124	0.220251	1221.791382
10550.563994	0.091230	0.220251	1304.081299
10550.564880	0.091238	0.220251	1384.917969
10550.565831	0.091337	0.220251	1471.779175
10550.566739	0.091198	0.220251	1554.586548
10550.567638	0.091249	0.220251	1636.619141
10550.568569	0.091263	0.220251	1721.585449
10550.569473	0.091230	0.220251	1804.057739
10550.570379	0.091326	0.220251	1886.798828
10550.571266	0.091223	0.220251	1967.713745
10551.600582	1.201593	0.230052	526.297729
10551.601473	0.727079	0.230052	1174.125000
10551.602438	0.093131	0.230052	1263.996460
10551.603344	0.091154	0.230052	1346.581543
10551.604238	0.091271	0.230052	1428.177612
10551.605157	0.091271	0.230052	1512.055420
10551.606054	0.091267	0.230052	1593.921997
10551.606942	0.091326	0.230052	1675.019165
10551.607828	0.091322	0.230052	1755.930420
10551.608793	0.091311	0.230052	1844.045532
10551.609684	0.091223	0.230052	1925.325317
10551.610585	0.091102	0.230052	2007.408447
10552.675798	1.219563	0.222608	540.266357
10552.676725	0.681647	0.222608	1172.152832
10552.677616	0.094014	0.222608	1255.919067
10552.678549	0.091179	0.222608	1340.989258
10552.679457	0.091249	0.222608	1423.843140
10552.680347	0.091172	0.222608	1504.986084
10552.681233	0.091282	0.222608	1585.861694
10552.682165	0.091333	0.222608	1670.984009
10552.683067	0.091271	0.222608	1753.310181
10552.683975	0.091256	0.222608	1836.170654
10552.684883	0.091241	0.222608	1919.017944
10552.685806	0.091362	0.222608	2003.345337
10553.714132	1.215395	0.231619	535.989380
10553.715078	0.660597	0.231619	1160.914062
10553.715978	0.093530	0.231619	1245.091309
10553.716875	0.091238	0.231619	1326.931641
10553.717761	0.091256	0.231619	1407.784546
10553.718699	0.091190	0.231619	1493.320923
10553.719599	0.091296	0.231619	1575.487671
10553.720500	0.091172	0.231619	1657.633545
10553.721390	0.091274	0.231619	1738.867798
10553.722337	0.091359	0.231619	1825.384399
10553.723241	0.091132	0.231619	1907.767334
10553.724136	0.091260	0.231619	1989.444824
10554.790360	1.215015	0.227027	534.606445
10554.791265	0.699452	0.227027	1167.610352
10554.792217	0.093135	0.227027	1256.274658
10554.793121	0.091274	0.227027	1338.786743
10554.794017	0.091263	0.227027	1420.558838
10554.794949	0.091337	0.227027	1505.684570
10554.795852	0.091300	0.227027	1588.128540
10554.796749	0.091282	0.227027	1670.008301
10554.797638	0.091238	0.227027	1751.118652
10554.798583	0.091289	0.227027	1837.386841
10554.799486	0.091230	0.227027	1919.767944
10554.800389	0.091168	0.227027	2002.092773
10555.827657	1.204178	0.229903	526.226013
10555.828599	0.665530	0.229903	1153.155029
10555.829514	0.093534	0.229903	1238.738525
10555.830415	0.091201	0.229903	1320.910767
10555.831328	0.091285	0.229903	1404.254395
10555.832238	0.091315	0.229903	1487.350830
10555.833142	0.091263	0.229903	1569.853027
10555.834035	0.091293	0.229903	1651.377441
10555.834973	0.091238	0.229903	1736.958496
10555.835867	0.091318	0.229903	1818.597168
10555.836760	0.091252	0.229903	1900.085571
10555.837650	0.091241	0.229903	1981.290527
10556.904990	1.306468	0.226608	668.911865
10556.905912	0.562599	0.226608	1187.628052
10556.906817	0.092560	0.226608	1271.394653
10556.907701	0.091201	0.226608	1352.016479
10556.908647	0.091293	0.226608	1438.379395
10556.909548	0.091274	0.226608	1520.617676
10556.910446	0.091051	0.226608	1602.381470
10556.911380	0.091245	0.226608	1687.604370
10556.912287	0.091322	0.226608	1770.433472
10556.913187	0.091238	0.226608	1852.547485
10556.914080	0.091241	0.226608	1934.026123
10556.915032	0.091315	0.226608	2020.957764
10557.942239	1.224946	0.229360	548.776001
10557.943140	0.708717	0.229360	1187.330078
10557.944023	0.094534	0.229360	1270.803345
10557.944980	0.091340	0.229360	1358.216064
10557.945890	0.091329	0.229360	1441.325806
10557.946788	0.091161	0.229360	1523.188232
10557.947690	0.091278	0.229360	1605.520996
10557.948617	0.091344	0.229360	1690.196899
10557.949525	0.091194	0.229360	1773.000977
10557.950419	0.091212	0.229360	1854.544678
10557.951356	0.091315	0.229360	1940.106567
10557.952259	0.091388	0.229360	2022.629883
10559.019484	1.236394	0.226798	558.850098
10559.020389	0.687924	0.226798	1181.420898
10559.021320	0.093636	0.226798	1268.596436
10559.022236	0.091344	0.226798	1352.267578
10559.023140	0.091285	0.226798	1434.789551
10559.024029	0.091329	0.226798	1515.981323
10559.024972	0.091296	0.226798	1602.073853
10559.025874	0.091333	0.226798	1684.456177
10559.026766	0.091201	0.226798	1765.807617
10559.027691	0.091234	0.226798	1850.199219
10559.028605	0.091359	0.226798	1933.701050
10559.029512	0.091234	0.226798	2016.450439
10560.056784	1.202593	0.231555	531.545959
10560.057677	0.724222	0.231555	1178.276611
10560.058650	0.093018	0.231555	1268.782715
10560.059555	0.091234	0.231555	1351.349609
10560.060441	0.091282	0.231555	1432.225220
10560.061373	0.091245	0.231555	1517.265625
10560.062284	0.091260	0.231555	1600.403320
10560.063181	0.091157	0.231555	1682.171387
10560.064067	0.091278	0.231555	1763.043701
10560.065003	0.091241	0.231555	1848.445679
10560.065915	0.091154	0.231555	1931.577759
10560.066813	0.091337	0.231555	2013.598145
10561.133024	1.221716	0.224240	553.437500
10561.133920	0.709160	0.224240	1188.844971
10561.134860	0.094025	0.224240	1277.228149
10561.135761	0.091168	0.224240	1359.370728
10561.136666	0.091274	0.224240	1441.974121
10561.137554	0.091216	0.224240	1522.973755
10561.138509	0.091351	0.224240	1610.214233
10561.139411	0.091073	0.224240	1692.362061
10561.140299	0.091143	0.224240	1773.296631
10561.141220	0.091322	0.224240	1857.404175
10561.142124	0.091289	0.224240	1939.929443
10561.143024	0.091150	0.224240	2021.964355
10562.170326	1.211957	0.232630	540.532715
10562.171218	0.718052	0.232630	1181.034912
10562.172176	0.093256	0.232630	1270.373779
10562.173084	0.091150	0.232630	1353.137939
10562.173972	0.091271	0.232630	1434.186401
10562.174894	0.091285	0.232630	1518.351562
10562.175824	0.091172	0.232630	1603.141357
10562.176725	0.091274	0.232630	1685.379639
10562.177614	0.091238	0.232630	1766.489990
10562.178564	0.091205	0.232630	1853.134521
10562.179469	0.091238	0.232630	1935.704712
10562.180382	0.091227	0.232630	2018.994751
10563.247563	1.207676	0.225178	530.169678
10563.248539	0.622185	0.225178	1137.422363
10563.249450	0.092791	0.225178	1221.954590
10563.250380	0.091245	0.225178	1306.812500
10563.251268	0.091311	0.225178	1387.896729
10563.252217	0.091205	0.225178	1474.450073
10563.253109	0.091219	0.225178	1555.817871
10563.253993	0.091333	0.225178	1636.556274
10563.254925	0.091296	0.225178	1721.644531
10563.255835	0.091219	0.225178	1804.654297
10563.256753	0.091227	0.225178	1888.400513
10563.257650	0.091245	0.225178	1970.247437
10564.284894	1.224034	0.236341	545.919373
10564.285804	0.702004	0.236341	1184.743408
10564.286693	0.094380	0.236341	1268.647095
10564.287649	0.091263	0.236341	1355.894897
10564.288546	0.091315	0.236341	1437.804199
10564.289440	0.091099	0.236341	1519.246338
10564.290328	0.091176	0.236341	1600.210205
10564.291286	0.091315	0.236341	1687.689697
10564.292194	0.091216	0.236341	1770.513672
10564.293094	0.091278	0.236341	1852.663940
10564.294021	0.091296	0.236341	1937.295654
10564.294920	0.091318	0.236341	2019.390869
10565.362147	1.223346	0.225746	560.292419
10565.363044	0.699463	0.225746	1187.710693
10565.363978	0.093992	0.225746	1275.498901
10565.364883	0.091249	0.225746	1358.079102
10565.365783	0.091337	0.225746	1440.282104
10565.366673	0.091252	0.225746	1521.496826
10565.367618	0.091377	0.225746	1607.848022
10565.368521	0.091216	0.225746	1690.215942
10565.369410	0.091329	0.225746	1771.407715
10565.370320	0.091359	0.225746	1854.544067
10565.371232	0.091340	0.225746	1937.846436
10565.372133	0.091256	0.225746	2020.068115
10566.398423	1.220958	0.236538	546.989258
10566.399324	0.707556	0.236538	1184.497314
10566.400249	0.094504	0.236538	1271.913818
10566.401168	0.091322	0.236538	1355.838745
10566.402077	0.091252	0.236538	1438.787231
10566.402973	0.091252	0.236538	1520.549438
10566.403905	0.091359	0.236538	1605.695679
10566.404804	0.091267	0.236538	1687.744751
10566.405701	0.091256	0.236538	1769.601440
10566.406586	0.091245	0.236538	1850.353394
10566.407523	0.091304	0.236538	1935.905029
10566.408430	0.091230	0.236538	2018.651123
10567.475678	1.215879	0.226439	541.066162
10567.476576	0.709647	0.226439	1178.329346
10567.477532	0.093289	0.226439	1267.513184
10567.478444	0.091102	0.226439	1350.598511
10567.479337	0.091208	0.226439	1432.047729
10567.480273	0.091260	0.226439	1517.466919
10567.481181	0.091315	0.226439	1600.380615
10567.482080	0.091172	0.226439	1682.344116
10567.482968	0.091263	0.226439	1763.385986
10567.483894	0.091307	0.226439	1847.936646
10567.484794	0.091260	0.226439	1930.070435
10567.485698	0.091179	0.226439	2012.496460
10568.512973	1.200718	0.236212	525.914429
10568.513954	0.613447	0.236212	1127.706177
10568.514861	0.093010	0.236212	1212.066528
10568.515752	0.091293	0.236212	1293.408325
10568.516667	0.091208	0.236212	1376.864136
10568.517588	0.091351	0.236212	1460.998657
10568.518497	0.091216	0.236212	1543.913818
10568.519392	0.091223	0.236212	1625.558594
10568.520316	0.091318	0.236212	1709.936768
10568.521226	0.091260	0.236212	1792.983154
10568.522129	0.091198	0.236212	1875.334473
10568.523021	0.091260	0.236212	1956.738159
10569.589196	1.204900	0.225972	526.541260
10569.590146	0.667808	0.225972	1160.958496
10569.591065	0.092977	0.225972	1246.404663
10569.591966	0.091154	0.225972	1328.534058
10569.592856	0.091238	0.225972	1409.735718
10569.593806	0.091256	0.225972	1496.428955
10569.594699	0.091187	0.225972	1577.858521
10569.595599	0.091208	0.225972	1659.946167
10569.596495	0.091172	0.225972	1741.636230
10569.597431	0.091307	0.225972	1827.099976
10569.598331	0.091230	0.225972	1909.207397
10569.599225	0.091205	0.225972	1990.744507
10570.626556	1.222390	0.234339	596.526428
10570.627480	0.600472	0.234339	1151.362915
10570.628380	0.092919	0.234339	1234.989746
10570.629272	0.091307	0.234339	1316.435913
10570.630228	0.091285	0.234339	1403.704712
10570.631122	0.091234	0.234339	1485.268066
10570.632021	0.091307	0.234339	1567.353394
10570.632904	0.091146	0.234339	1647.835571
10570.633849	0.091315	0.234339	1734.127930
10570.634746	0.091165	0.234339	1815.902588
10570.635648	0.091256	0.234339	1898.215576
10570.636578	0.091256	0.234339	1983.083740
10571.703771	1.221006	0.227261	542.126587
10571.704713	0.654694	0.227261	1158.847900
10571.705605	0.093428	0.227261	1242.185425
10571.706551	0.091263	0.227261	1328.520630
10571.707450	0.091249	0.227261	1410.553223
10571.708350	0.091132	0.227261	1492.571655
10571.709234	0.091234	0.227261	1573.222656
10571.710171	0.091282	0.227261	1658.753662
10571.711075	0.091223	0.227261	1741.219360
10571.711979	0.091329	0.227261	1823.781128
10571.712868	0.091205	0.227261	1904.862183
10571.713821	0.091296	0.227261	1991.867676
10572.741094	1.222430	0.236884	557.428223
10572.742005	0.690125	0.236884	1186.131592
10572.742894	0.094171	0.236884	1269.849731
10572.743856	0.091249	0.236884	1357.631104
10572.744756	0.091234	0.236884	1439.741821
10572.745663	0.091296	0.236884	1522.547607
10572.746553	0.091256	0.236884	1603.765503
10572.747501	0.091326	0.236884	1690.342285
10572.748404	0.091146	0.236884	1772.647339
10572.749291	0.091326	0.236884	1853.653198
10572.750207	0.091399	0.236884	1937.374634
10572.751112	0.091344	0.236884	2020.041016
10573.817338	1.265237	0.226330	616.170288
10573.818257	0.619296	0.226330	1185.302979
10573.819152	0.093098	0.226330	1268.625854
10573.820094	0.091282	0.226330	1354.613281
10573.821009	0.091223	0.226330	1438.082520
10573.821908	0.091190	0.226330	1520.062500
10573.822795	0.091282	0.226330	1601.029419
10573.823738	0.091359	0.226330	1687.180664
10573.824646	0.091238	0.226330	1770.024536
10573.825537	0.091183	0.226330	1851.268433
10573.826422	0.091311	0.226330	1932.078735
10573.827371	0.091289	0.226330	2018.712036
10574.855622	1.194631	0.239974	518.469971
10574.856520	0.739171	0.239974	1182.245605
10574.857489	0.093032	0.239974	1272.393799
10574.858395	0.091132	0.239974	1354.958984
10574.859323	0.091161	0.239974	1439.556274
10574.860210	0.091260	0.239974	1520.503662
10574.861168	0.091245	0.239974	1607.916504
10574.862062	0.091176	0.239974	1689.427490
10574.862946	0.091205	0.239974	1770.052612
10574.863871	0.091227	0.239974	1854.437378
10574.864774	0.091047	0.239974	1936.653198
10574.865693	0.091296	0.239974	2020.554565
10575.931886	1.224998	0.225996	581.873901
10575.932785	0.668218	0.225996	1182.601685
10575.933734	0.093940	0.225996	1271.751099
10575.934635	0.091143	0.225996	1353.870605
10575.935551	0.091198	0.225996	1437.407471
10575.936444	0.091263	0.225996	1518.905762
10575.937374	0.091260	0.225996	1603.777344
10575.938279	0.091183	0.225996	1686.297852
10575.939200	0.091252	0.225996	1770.341309
10575.940089	0.091238	0.225996	1851.451660
10575.941033	0.091271	0.225996	1937.611206
10575.941929	0.091271	0.225996	2019.389771
10576.970188	1.208412	0.240478	531.701233
10576.971164	0.628154	0.240478	1144.779785
10576.972083	0.092615	0.240478	1229.892700
10576.972985	0.091296	0.240478	1312.242065
10576.973919	0.091241	0.240478	1397.461548
10576.974825	0.091165	0.240478	1480.056641
10576.975739	0.091168	0.240478	1563.384399
10576.976626	0.091201	0.240478	1644.279785
10576.977574	0.091249	0.240478	1730.783691
10576.978482	0.091289	0.240478	1813.674194
10576.979376	0.091106	0.240478	1895.122925
10576.980317	0.091263	0.240478	1981.001831
10578.045383	1.200231	0.225319	523.300598
10578.046362	0.598334	0.225319	1109.069336
10578.047273	0.092820	0.225319	1193.628174
10578.048173	0.091187	0.225319	1275.696045
10578.049088	0.091296	0.225319	1359.232178
10578.049990	0.091198	0.225319	1441.492310
10578.050891	0.091128	0.225319	1523.598633
10578.051779	0.091194	0.225319	1604.578735
10578.052709	0.091216	0.225319	1689.409424
10578.053618	0.091289	0.225319	1772.391235
10578.054523	0.091223	0.225319	1854.948242
10578.055414	0.091179	0.225319	1936.188965
10579.083725	1.208339	0.240389	530.460632
10579.084634	0.713302	0.240389	1178.852173
10579.085522	0.094662	0.240389	1262.911865
10579.086483	0.091219	0.240389	1350.573730
10579.087393	0.091282	0.240389	1433.640137
10579.088283	0.091344	0.240389	1514.936279
10579.089202	0.091282	0.240389	1598.824219
10579.090109	0.091212	0.240389	1681.553589
10579.091015	0.091293	0.240389	1764.264771
10579.091903	0.091249	0.240389	1845.293701
10579.092848	0.091256	0.240389	1931.530762
10579.093754	0.091238	0.240389	2014.192139
10580.159962	1.218874	0.228743	548.493530
10580.160861	0.713031	0.228743	1189.508423
10580.161748	0.094684	0.228743	1273.492920
10580.162704	0.091315	0.228743	1360.789795
10580.163608	0.091256	0.228743	1443.285278
10580.164514	0.091219	0.228743	1525.930176
10580.165401	0.091271	0.228743	1606.887329
10580.166352	0.091311	0.228743	1693.724121
10580.167254	0.091201	0.228743	1775.987549
10580.168141	0.091216	0.228743	1856.895996
10580.169076	0.091282	0.228743	1942.244385
10580.169978	0.091315	0.228743	2024.610229
10581.198281	1.199359	0.239595	525.319336
10581.199256	0.601443	0.239595	1111.726074
10581.200166	0.092860	0.239595	1196.228760
10581.201069	0.091311	0.239595	1278.682617
10581.201956	0.091205	0.239595	1359.581299
10581.202908	0.091300	0.239595	1446.498901
10581.203813	0.091051	0.239595	1528.900024
10581.204709	0.091326	0.239595	1610.727783
10581.205650	0.091344	0.239595	1696.682495
10581.206550	0.091307	0.239595	1778.859131
10581.207443	0.091245	0.239595	1860.341064
10581.208330	0.091230	0.239595	1941.262451
10582.274506	1.204014	0.229311	527.358032
10582.275445	0.701114	0.229311	1185.704590
10582.276357	0.093582	0.229311	1271.050903
10582.277257	0.091252	0.229311	1353.178101
10582.278141	0.091260	0.229311	1433.851685
10582.279088	0.091406	0.229311	1520.413452
10582.279983	0.091300	0.229311	1602.126953
10582.280883	0.091271	0.229311	1684.270630
10582.281771	0.091285	0.229311	1765.332031
10582.282718	0.091329	0.229311	1851.820923
10582.283618	0.091238	0.229311	1933.934937
10582.284513	0.091289	0.229311	2015.638672
10583.313881	1.214780	0.242601	543.006775
10583.314774	0.722120	0.242601	1187.860229
10583.315728	0.093398	0.242601	1276.962402
10583.316622	0.091230	0.242601	1358.522461
10583.317519	0.091304	0.242601	1440.421875
10583.318405	0.091256	0.242601	1521.274780
10583.319352	0.091293	0.242601	1607.729004
10583.320258	0.091234	0.242601	1690.387085
10583.321155	0.091234	0.242601	1772.224121
10583.322078	0.091362	0.242601	1856.551514
10583.322981	0.091278	0.242601	1938.975586
10583.323886	0.091198	0.242601	2021.509277
10584.388039	1.202882	0.230926	523.253662
10584.388988	0.694783	0.230926	1182.602539
10584.389903	0.093087	0.230926	1267.777344
10584.390815	0.091183	0.230926	1350.936157
10584.391708	0.091212	0.230926	1432.388672
10584.392647	0.091366	0.230926	1518.181274
10584.393557	0.091274	0.230926	1601.240967
10584.394449	0.091256	0.230926	1682.641357
10584.395335	0.091245	0.230926	1763.484497
10584.396273	0.091285	0.230926	1849.110229
10584.397172	0.091252	0.230926	1931.146118
10584.398061	0.091216	0.230926	2012.236938
10585.427434	1.210236	0.241811	567.600464
10585.428342	0.663113	0.241811	1169.706787
10585.429263	0.093904	0.241811	1256.192139
10585.430198	0.091304	0.241811	1341.561157
10585.431113	0.091344	0.241811	1425.140869
10585.432006	0.091300	0.241811	1506.671875
10585.432912	0.091300	0.241811	1589.389771
10585.433852	0.091285	0.241811	1675.197998
10585.434769	0.091179	0.241811	1758.809326
10585.435660	0.091227	0.241811	1840.092407
10585.436605	0.091289	0.241811	1926.360596
10585.437508	0.091355	0.241811	2008.854126
10586.501626	1.224547	0.228957	597.578979
10586.502548	0.613843	0.228957	1163.541992
10586.503460	0.093025	0.228957	1248.380737
10586.504353	0.091300	0.228957	1329.911621
10586.505298	0.091370	0.228957	1416.255859
10586.506194	0.091263	0.228957	1498.027832
10586.507094	0.091198	0.228957	1580.105591
10586.507987	0.091322	0.228957	1661.656128
10586.508938	0.091241	0.228957	1748.426758
10586.509848	0.091208	0.228957	1831.426514
10586.510744	0.091307	0.228957	1913.237915
10586.511671	0.091271	0.228957	1997.845947
