time (s)	theta (A)	maj axis/z0	min axis/z0	crossing#mod 255
13460.766889	40.922184	0.746053	0.254940	129
13462.883742	40.707985	0.760816	0.247552	131
13465.006370	40.633606	0.774262	0.241146	133
13467.131783	40.380985	0.790705	0.235398	135
13469.256832	39.960556	0.804011	0.230618	137
13471.378741	39.945068	0.817528	0.225964	139
13473.498773	40.085266	0.834023	0.222141	141
13475.617530	40.378128	0.846679	0.218218	143
13477.733584	40.783421	0.856625	0.214930	145
13479.850696	41.157539	0.866219	0.212005	147
13481.968765	41.306049	0.877410	0.209641	149
13484.089319	41.192871	0.885792	0.207915	151
13486.211095	40.964798	0.893158	0.206176	153
13488.334701	40.342175	0.906120	0.204818	155
13490.458492	39.712341	0.914030	0.203553	157
13492.578830	39.559303	0.923293	0.200765	159
13494.697682	39.505039	0.936113	0.197123	161
13496.815091	39.649143	0.944423	0.193729	163
13498.928057	40.357090	0.953359	0.190808	165
13501.039397	41.007767	0.958798	0.188721	167
13503.154398	41.566406	0.964201	0.187131	169
13505.270846	41.758621	0.970346	0.185871	171
13507.387029	42.066555	0.972581	0.184819	173
13509.503134	42.378273	0.979742	0.183295	175
13511.621771	42.342606	0.988863	0.181738	177
13513.739550	42.247959	0.991870	0.180665	179
13515.858412	42.047153	0.999376	0.179077	181
13517.978043	41.357487	1.004375	0.178008	183
13520.099057	40.680882	1.010163	0.177437	185
13522.219222	40.157898	1.018820	0.177804	187
13524.336966	39.834686	1.024246	0.177909	189
13526.452413	40.093391	1.029210	0.178369	191
13528.566492	40.838272	1.037076	0.177565	193
13530.678951	41.640137	1.041584	0.176483	195
13532.792870	42.339642	1.042980	0.174744	197
13534.907526	42.867172	1.047161	0.173090	199
13537.021957	43.169624	1.049030	0.171573	201
13539.136500	43.482868	1.049117	0.170348	203
13541.252108	43.572166	1.055470	0.168964	205
13543.369834	43.499348	1.059418	0.168258	207
13545.486325	43.494179	1.061936	0.167627	209
13547.602421	43.396286	1.069098	0.167021	211
13549.718523	43.340816	1.070542	0.166617	213
13551.833922	43.595959	1.072704	0.166287	215
13553.949499	43.580627	1.078253	0.166181	217
13556.065445	43.606018	1.078875	0.166034	219
13558.182412	43.576916	1.084566	0.165968	221
13560.299244	43.410210	1.085918	0.166441	223
13562.416901	43.257359	1.087967	0.166726	225
13564.535658	42.936729	1.095030	0.166730	227
13566.654951	42.545135	1.094343	0.166803	229
13568.773169	42.286861	1.101286	0.165979	231
13570.890528	41.992035	1.104561	0.165219	233
13573.006807	42.096375	1.107571	0.163785	235
13575.121744	42.155876	1.112265	0.162447	237
13577.234885	42.629227	1.113607	0.160996	239
13579.347308	43.056900	1.118532	0.160094	241
13581.461050	43.323631	1.117303	0.159665	243
13583.575027	43.819584	1.117962	0.159683	245
13585.689698	43.973511	1.122759	0.159166	247
13587.805011	44.064644	1.119718	0.159150	249
13589.921180	44.272591	1.121463	0.158773	251
13592.037454	44.093575	1.126389	0.158588	253
13594.154419	43.849941	1.125301	0.158370	255
13596.272670	43.443146	1.131752	0.158227	1
13598.390684	42.958839	1.131330	0.158494	3
13600.508144	42.645798	1.132769	0.159441	5
13602.624592	42.471951	1.139503	0.160276	7
13604.740328	42.453186	1.139277	0.161111	9
13606.854682	42.879642	1.140239	0.161558	11
13608.968133	43.455990	1.145244	0.161454	13
13611.081473	43.915173	1.148562	0.161426	15
13613.195087	44.430912	1.146050	0.160989	17
13615.309150	44.957870	1.150470	0.160504	19
13617.422833	45.191212	1.151575	0.160310	21
13619.536874	45.516895	1.148497	0.159820	23
13621.652035	45.712669	1.154076	0.159368	25
13623.767464	45.715141	1.151748	0.158887	27
13625.882778	45.894608	1.154532	0.158415	29
13627.998245	45.857170	1.156680	0.158099	31
13630.113334	45.930828	1.153709	0.157935	33
13632.229029	45.946087	1.158611	0.157830	35
13634.345170	45.875446	1.157917	0.157821	37
13636.461626	45.834972	1.157879	0.158198	39
13638.577975	45.750912	1.161264	0.158749	41
13640.694552	45.528114	1.166126	0.158939	43
13642.811850	45.259075	1.165219	0.159165	45
13644.929340	45.161674	1.167222	0.159451	47
13647.046625	44.798855	1.171141	0.159218	49
13649.163591	44.526981	1.169047	0.159304	51
13651.280022	44.539608	1.175299	0.158834	53
13653.395847	44.422344	1.178890	0.158112	55
13655.510397	44.577545	1.178189	0.157233	57
13657.624108	44.883152	1.184389	0.156350	59
13659.737439	45.099815	1.185027	0.155505	61
13661.851070	45.428753	1.181576	0.155047	63
13663.964956	45.755520	1.181187	0.154687	65
13666.079149	46.053791	1.181495	0.154157	67
13668.194212	46.180840	1.185385	0.153757	69
13670.309505	46.151608	1.182184	0.153831	71
13672.425364	46.226273	1.183270	0.153688	73
13674.541752	46.057076	1.188143	0.153274	75
13676.658744	45.709702	1.185479	0.153478	77
13678.775845	45.481762	1.189921	0.153400	79
13680.892577	45.083366	1.190727	0.153655	81
13683.009131	44.987118	1.189198	0.153931	83
13685.125109	44.999798	1.190498	0.153964	85
13687.240206	45.134113	1.195066	0.154476	87
13689.354831	45.341873	1.197712	0.155242	89
13691.468614	45.686161	1.195219	0.155222	91
13693.582697	46.204906	1.198003	0.155004	93
13695.696601	46.488152	1.202661	0.154995	95
13697.810394	46.697178	1.201707	0.155116	97
13699.924564	47.064621	1.197428	0.154842	99
13702.038882	47.329647	1.200810	0.154205	101
13704.153634	47.424816	1.199066	0.153970	103
13706.268631	47.592827	1.195370	0.153706	105
13708.383713	47.748032	1.198926	0.153655	107
13710.498947	47.797756	1.202906	0.153768	109
13712.614538	47.640644	1.200994	0.153897	111
13714.730316	47.805473	1.201609	0.153996	113
13716.846590	47.608719	1.206567	0.154057	115
13718.962651	47.407146	1.205167	0.154332	117
13721.079137	47.405251	1.203016	0.154467	119
13723.195666	47.355679	1.205311	0.154387	121
13725.312236	47.080296	1.208157	0.154207	123
13727.428821	46.839836	1.203604	0.153841	125
13729.545106	46.893940	1.205473	0.153391	127
13731.660852	46.894867	1.208915	0.152620	129
13733.776081	46.952675	1.212238	0.152110	131
13735.890616	46.975029	1.214649	0.152002	133
13738.004482	47.089661	1.212927	0.151388	135
13740.118314	47.561646	1.212022	0.150746	137
13742.232032	47.864159	1.218634	0.150988	139
13744.346150	47.963779	1.219813	0.151187	141
13746.460626	48.135822	1.214627	0.151075	143
13748.575570	48.360928	1.217335	0.150722	145
13750.690567	48.395813	1.213667	0.150958	147
13752.806265	48.378006	1.218479	0.150919	149
13754.922246	48.212414	1.216182	0.150846	151
13757.038788	48.089241	1.217367	0.150972	153
13759.155249	47.761547	1.220386	0.151504	155
13761.271634	47.574677	1.216758	0.151085	157
13763.387917	47.525352	1.220871	0.151350	159
13765.503807	47.319675	1.222129	0.151988	161
13767.619099	47.424309	1.218830	0.152449	163
13769.733824	47.705807	1.218913	0.152554	165
13771.848196	48.063301	1.220178	0.152327	167
