time (s)	coil I (A)	last det (V)	int current (uC)
6358.561765	1.242675	0.169869	556.718201
6358.562702	0.657535	0.169869	1172.828857
6358.563600	0.093256	0.169869	1256.572388
6358.564539	0.091132	0.169869	1342.144897
6358.565438	0.091157	0.169869	1424.095215
6358.566340	0.091073	0.169869	1506.243042
6358.567228	0.091040	0.169869	1587.086548
6358.568167	0.091121	0.169869	1672.648804
6358.569062	0.091179	0.169869	1754.254150
6358.569961	0.091117	0.169869	1836.168335
6358.570852	0.091066	0.169869	1917.307861
6358.571794	0.091179	0.169869	2003.198730
6359.597514	1.221800	0.165039	537.592224
6359.598480	0.615718	0.165039	1132.375610
6359.599395	0.092816	0.165039	1217.302368
6359.600286	0.091062	0.165039	1298.438599
6359.601226	0.091099	0.165039	1384.071289
6359.602135	0.091022	0.165039	1466.810059
6359.603040	0.091117	0.165039	1549.270874
6359.603927	0.091110	0.165039	1630.085083
6359.604883	0.091201	0.165039	1717.273437
6359.605791	0.091102	0.165039	1799.994385
6359.606686	0.091073	0.165039	1881.504761
6359.607594	0.091022	0.165039	1964.152466
6360.673737	1.200399	0.164177	525.774841
6360.674713	0.600304	0.164177	1111.671509
6360.675612	0.092900	0.164177	1195.188965
6360.676509	0.091058	0.164177	1276.868286
6360.677394	0.091018	0.164177	1357.419312
6360.678340	0.091088	0.164177	1443.588257
6360.679240	0.091011	0.164177	1525.497925
6360.680135	0.091187	0.164177	1607.109863
6360.681065	0.091051	0.164177	1691.787354
6360.681973	0.091150	0.164177	1774.551514
6360.682877	0.091135	0.164177	1856.937744
6360.683768	0.091000	0.164177	1938.018555
6361.709515	1.203798	0.160491	528.467163
6361.710410	0.734073	0.160491	1185.462891
6361.711368	0.093124	0.160491	1274.675415
6361.712284	0.091044	0.160491	1358.071411
6361.713182	0.091088	0.160491	1439.868164
6361.714096	0.091117	0.160491	1523.149048
6361.715003	0.091062	0.160491	1605.742310
6361.715908	0.090941	0.160491	1688.044067
6361.716799	0.091033	0.160491	1769.154175
6361.717724	0.091110	0.160491	1853.430542
6361.718635	0.091110	0.160491	1936.431396
6361.719536	0.091014	0.160491	2018.435425
6362.786767	1.218461	0.168995	538.559631
6362.787752	0.589530	0.168995	1119.246704
6362.788652	0.092717	0.168995	1202.692261
6362.789548	0.091003	0.168995	1284.231323
6362.790431	0.091077	0.168995	1364.651978
6362.791362	0.091194	0.168995	1449.553467
6362.792270	0.091077	0.168995	1532.251099
6362.793168	0.091022	0.168995	1613.988647
6362.794101	0.091095	0.168995	1698.980225
6362.795014	0.091113	0.168995	1782.166626
6362.795917	0.091018	0.168995	1864.355957
6362.796806	0.091069	0.168995	1945.316650
6363.827717	1.236281	0.170876	614.431458
6363.828646	0.575566	0.170876	1149.132568
6363.829557	0.092380	0.170876	1233.291138
6363.830447	0.091073	0.170876	1314.346069
6363.831377	0.091106	0.170876	1399.074585
6363.832282	0.091007	0.170876	1481.436035
6363.833176	0.091058	0.170876	1562.842163
6363.834064	0.091128	0.170876	1643.763794
6363.835010	0.091003	0.170876	1729.853027
6363.835905	0.091033	0.170876	1811.327271
6363.836793	0.091132	0.170876	1892.252075
6363.837722	0.091069	0.170876	1976.855469
6364.899294	1.225646	0.162409	552.766235
6364.900197	0.694124	0.162409	1179.559814
6364.901142	0.093856	0.162409	1268.253906
6364.902046	0.091025	0.162409	1350.540894
6364.902951	0.091095	0.162409	1432.981812
6364.903841	0.091095	0.162409	1514.056396
6364.904785	0.091234	0.162409	1600.181396
6364.905679	0.091066	0.162409	1681.594116
6364.906570	0.091007	0.162409	1762.681396
6364.907474	0.091234	0.162409	1845.156982
6364.908408	0.091073	0.162409	1930.219116
6364.909310	0.090985	0.162409	2012.287720
6365.939662	1.205383	0.160850	530.368652
6365.940554	0.726606	0.160850	1178.501709
6365.941512	0.093116	0.160850	1267.707275
6365.942420	0.091007	0.160850	1350.341675
6365.943306	0.091062	0.160850	1431.022583
6365.944229	0.091154	0.160850	1515.157349
6365.945141	0.091124	0.160850	1598.262695
6365.946030	0.090959	0.160850	1679.125732
6365.946914	0.091128	0.160850	1759.682861
6365.947853	0.091117	0.160850	1845.241699
6365.948766	0.091139	0.160850	1928.451538
6365.949668	0.091062	0.160850	2010.589478
6367.013319	1.202311	0.169092	523.005188
6367.014262	0.673488	0.169092	1158.104004
6367.015177	0.093171	0.169092	1243.355835
6367.016083	0.091080	0.169092	1325.874634
6367.016968	0.091014	0.169092	1406.422363
6367.017914	0.091183	0.169092	1492.681396
6367.018813	0.091091	0.169092	1574.572510
6367.019700	0.091062	0.169092	1655.344482
6367.020605	0.091022	0.169092	1737.719116
6367.021535	0.091117	0.169092	1822.457886
6367.022437	0.091007	0.169092	1904.546265
6367.023325	0.091143	0.169092	1985.480835
6368.055772	1.242319	0.156975	565.255310
6368.056714	0.629363	0.156975	1158.114990
6368.057605	0.093263	0.156975	1241.212280
6368.058565	0.091143	0.156975	1328.709106
6368.059466	0.091022	0.156975	1410.719727
6368.060353	0.091216	0.156975	1491.628174
6368.061294	0.091168	0.156975	1577.417480
6368.062201	0.091077	0.156975	1660.024048
6368.063108	0.091128	0.156975	1742.677124
6368.064008	0.091172	0.156975	1824.731812
6368.064945	0.091187	0.156975	1910.173584
6368.065846	0.091055	0.156975	1992.213867
6369.125839	1.209569	0.179038	535.839111
6369.126730	0.726031	0.179038	1182.733154
6369.127690	0.093058	0.179038	1272.068726
6369.128599	0.091062	0.179038	1354.844116
6369.129488	0.091051	0.179038	1435.788452
6369.130395	0.091113	0.179038	1518.428223
6369.131329	0.091099	0.179038	1603.514404
6369.132231	0.091091	0.179038	1685.678711
6369.133122	0.091172	0.179038	1766.912842
6369.134071	0.091205	0.179038	1853.466187
6369.134974	0.091077	0.179038	1935.708374
6369.135871	0.091077	0.179038	2017.404175
6370.168787	1.210891	0.159355	540.057434
6370.169692	0.708691	0.159355	1181.423096
6370.170625	0.094138	0.159355	1269.254028
6370.171531	0.091132	0.159355	1351.819214
6370.172431	0.091040	0.159355	1433.755249
6370.173317	0.091139	0.159355	1514.504272
6370.174253	0.091267	0.159355	1599.930298
6370.175159	0.091000	0.159355	1682.376099
6370.176050	0.091011	0.159355	1763.466675
6370.176955	0.091135	0.159355	1845.944092
6370.177892	0.091124	0.159355	1931.327515
6370.178799	0.091047	0.159355	2013.907471
6371.240919	1.218863	0.178313	537.518799
6371.241831	0.703535	0.178313	1179.142822
6371.242721	0.094061	0.178313	1262.857422
6371.243664	0.091157	0.178313	1348.818726
6371.244582	0.091143	0.178313	1432.487671
6371.245492	0.091088	0.178313	1515.377441
6371.246384	0.091194	0.178313	1596.722412
6371.247329	0.091124	0.178313	1682.834839
6371.248241	0.091091	0.178313	1765.910156
6371.249139	0.091058	0.178313	1847.680542
6371.250026	0.090963	0.178313	1928.364868
6371.250959	0.091161	0.178313	2013.417969
6372.282842	1.220889	0.171618	543.295410
6372.283736	0.710266	0.171618	1178.273315
6372.284695	0.093091	0.171618	1267.547363
6372.285589	0.091029	0.171618	1348.927368
6372.286476	0.091099	0.171618	1429.731812
6372.287408	0.090974	0.171618	1514.519653
6372.288313	0.091040	0.171618	1596.910889
6372.289236	0.091121	0.171618	1681.015259
6372.290133	0.091179	0.171618	1762.802979
6372.291072	0.091146	0.171618	1848.389282
6372.291979	0.091132	0.171618	1931.045654
6372.292902	0.091036	0.171618	2015.072266
6373.355979	1.210166	0.170095	533.683167
6373.356870	0.721545	0.170095	1176.580078
6373.357847	0.092823	0.170095	1267.268677
6373.358751	0.091036	0.170095	1349.565552
6373.359643	0.090956	0.170095	1430.698120
6373.360572	0.091113	0.170095	1515.342407
6373.361480	0.091022	0.170095	1597.990112
6373.362380	0.091084	0.170095	1679.965698
6373.363263	0.091113	0.170095	1760.418701
6373.364202	0.091022	0.170095	1845.888062
6373.365100	0.091091	0.170095	1927.688110
6373.366011	0.091062	0.170095	2010.645630
6374.393850	1.241173	0.173704	604.451294
6374.394778	0.625675	0.173704	1185.077637
6374.395699	0.092552	0.173704	1270.318481
6374.396591	0.091102	0.173704	1351.581787
6374.397518	0.091066	0.173704	1435.999634
6374.398433	0.091040	0.173704	1519.301270
6374.399362	0.090992	0.173704	1603.833252
6374.400253	0.090985	0.173704	1684.901001
6374.401208	0.090996	0.173704	1771.802246
6374.402108	0.091007	0.173704	1853.708618
6374.402997	0.091139	0.173704	1934.731079
6374.403927	0.091033	0.173704	2019.391479
6375.472072	1.199183	0.171638	519.246399
6375.473016	0.673601	0.171638	1155.125854
6375.473929	0.093307	0.171638	1240.315063
6375.474833	0.090970	0.171638	1322.552368
6375.475721	0.091069	0.171638	1403.421875
6375.476673	0.091201	0.171638	1490.245361
6375.477578	0.091135	0.171638	1572.722778
6375.478471	0.091157	0.171638	1654.126221
6375.479391	0.091154	0.171638	1737.987549
6375.480292	0.091190	0.171638	1820.149902
6375.481197	0.091121	0.171638	1902.614014
6375.482093	0.091241	0.171638	1984.366333
6376.508364	1.202509	0.173007	523.091248
6376.509303	0.714690	0.173007	1194.185059
6376.510217	0.093190	0.173007	1279.360474
6376.511129	0.091102	0.173007	1362.445801
6376.512020	0.091106	0.173007	1443.621216
6376.512959	0.091135	0.173007	1529.197266
6376.513858	0.091198	0.173007	1611.183838
6376.514751	0.091132	0.173007	1692.564331
6376.515638	0.091121	0.173007	1773.388306
6376.516568	0.091135	0.173007	1858.144043
6376.517480	0.091077	0.173007	1941.205933
6376.518374	0.091241	0.173007	2022.775757
6377.586172	1.268950	0.169479	619.247681
6377.587097	0.595902	0.169479	1170.457031
6377.587999	0.092699	0.169479	1254.071533
6377.588883	0.091187	0.169479	1334.680420
6377.589830	0.091176	0.169479	1421.023682
6377.590739	0.091084	0.169479	1503.818970
6377.591635	0.091088	0.169479	1585.433472
6377.592561	0.091121	0.169479	1669.811157
6377.593457	0.091219	0.169479	1751.543823
6377.594370	0.091066	0.169479	1834.686768
6377.595264	0.091033	0.169479	1916.070068
6377.596200	0.091267	0.169479	2001.496094
6378.621904	1.197440	0.174594	526.873657
6378.622849	0.655865	0.174594	1146.666504
6378.623756	0.093340	0.174594	1231.325684
6378.624657	0.091003	0.174594	1313.319824
6378.625544	0.091077	0.174594	1394.104858
6378.626497	0.091132	0.174594	1480.953247
6378.627403	0.091077	0.174594	1563.468750
6378.628301	0.091047	0.174594	1645.229248
6378.629224	0.091077	0.174594	1729.292969
6378.630123	0.091139	0.174594	1811.226807
6378.631021	0.090967	0.174594	1892.915039
6378.631905	0.091080	0.174594	1973.430054
6379.699204	1.252295	0.175892	623.642883
6379.700134	0.573622	0.175892	1157.111084
6379.701042	0.092450	0.175892	1241.055664
6379.701930	0.091040	0.175892	1321.899170
6379.702884	0.091230	0.175892	1408.932983
6379.703788	0.091146	0.175892	1491.329224
6379.704685	0.091080	0.175892	1573.028320
6379.705603	0.091132	0.175892	1656.687134
6379.706516	0.091165	0.175892	1739.920410
6379.707425	0.091135	0.175892	1822.762329
6379.708321	0.091121	0.175892	1904.406372
6379.709247	0.091223	0.175892	1988.879028
6380.737489	1.204691	0.180681	530.064087
6380.738384	0.733722	0.180681	1186.745117
6380.739349	0.093190	0.180681	1276.673218
6380.740255	0.091132	0.180681	1359.238403
6380.741155	0.091066	0.180681	1441.197510
6380.742040	0.091168	0.180681	1521.881348
6380.742984	0.091154	0.180681	1607.930298
6380.743891	0.091014	0.180681	1690.480347
6380.744786	0.091036	0.180681	1771.957886
6380.745710	0.091113	0.180681	1856.146606
6380.746615	0.091187	0.180681	1938.670410
6380.747520	0.091187	0.180681	2021.194214
6381.811661	1.212737	0.168085	537.242432
6381.812627	0.610620	0.168085	1127.101440
6381.813541	0.092725	0.168085	1211.851685
6381.814443	0.091128	0.168085	1294.049072
6381.815345	0.091194	0.168085	1376.305908
6381.816283	0.091238	0.168085	1461.886963
6381.817190	0.091201	0.168085	1544.606445
6381.818081	0.091150	0.168085	1625.821045
6381.819027	0.091132	0.168085	1712.031494
6381.819930	0.091172	0.168085	1794.359741
6381.820822	0.091051	0.168085	1875.577271
6381.821708	0.091044	0.168085	1956.241943
6382.854095	1.206764	0.186482	530.976074
6382.854995	0.723739	0.186482	1182.341064
6382.855940	0.094501	0.186482	1271.644287
6382.856855	0.091084	0.186482	1354.986084
6382.857756	0.091080	0.186482	1437.049438
6382.858643	0.091073	0.186482	1517.831177
6382.859592	0.091190	0.186482	1604.370605
6382.860500	0.091040	0.186482	1687.034912
6382.861395	0.091117	0.186482	1768.584595
6382.862284	0.091014	0.186482	1849.496338
6382.863229	0.091176	0.186482	1935.657227
6382.864133	0.091139	0.186482	2018.046753
6383.921107	1.211345	0.175013	540.259949
6383.922002	0.727031	0.175013	1190.952881
6383.922962	0.093402	0.175013	1280.618896
6383.923856	0.091036	0.175013	1362.005371
6383.924745	0.091099	0.175013	1442.992065
6383.925668	0.091073	0.175013	1527.052490
6383.926584	0.091201	0.175013	1610.592773
6383.927487	0.091033	0.175013	1692.795288
6383.928376	0.091143	0.175013	1773.821045
6383.929319	0.091088	0.175013	1859.716675
6383.930227	0.091106	0.175013	1942.440918
6383.931127	0.091113	0.175013	2024.442871
6384.974278	1.202849	0.178405	525.645081
6384.975173	0.733572	0.178405	1182.191895
6384.976131	0.093051	0.178405	1271.334351
6384.977036	0.091014	0.178405	1353.702393
6384.977924	0.091058	0.178405	1434.562256
6384.978843	0.091066	0.178405	1518.251587
6384.979772	0.091029	0.178405	1602.817627
6384.980675	0.091047	0.178405	1685.033447
6384.981568	0.091051	0.178405	1766.342041
6384.982503	0.091069	0.178405	1851.491821
6384.983412	0.091069	0.178405	1934.273804
6384.984316	0.091040	0.178405	2016.573975
6386.029564	1.271470	0.174876	621.748718
6386.030489	0.601278	0.174876	1177.930908
6386.031406	0.092476	0.174876	1262.730957
6386.032293	0.091025	0.174876	1343.470459
6386.033256	0.091088	0.174876	1431.187866
6386.034155	0.091025	0.174876	1513.019653
6386.035048	0.091036	0.174876	1594.315186
6386.035974	0.091062	0.174876	1678.638550
6386.036875	0.091073	0.174876	1760.695312
6386.037807	0.091088	0.174876	1845.588989
6386.038695	0.091135	0.174876	1926.517090
6386.039632	0.091022	0.174876	2011.804443
6387.091991	1.304821	0.187393	670.677734
6387.092913	0.567096	0.187393	1193.540161
6387.093805	0.092498	0.187393	1276.047974
6387.094687	0.090941	0.187393	1356.258057
6387.095632	0.091102	0.187393	1442.349731
6387.096540	0.090938	0.187393	1524.921021
6387.097435	0.091066	0.187393	1606.424805
6387.098363	0.091139	0.187393	1691.001709
6387.099269	0.091157	0.187393	1773.590088
6387.100169	0.091146	0.187393	1855.621704
6387.101055	0.091033	0.187393	1936.276733
6387.102007	0.091091	0.187393	2022.995605
6388.137928	1.217212	0.179408	533.138855
6388.138902	0.601901	0.179408	1119.390137
6388.139811	0.092758	0.179408	1203.706787
6388.140707	0.091069	0.179408	1285.304932
6388.141626	0.091132	0.179408	1369.054810
6388.142521	0.091132	0.179408	1450.617554
6388.143419	0.091154	0.179408	1532.473511
6388.144305	0.091055	0.179408	1613.147949
6388.145257	0.091132	0.179408	1699.905273
6388.146151	0.091110	0.179408	1781.357300
6388.147051	0.091077	0.179408	1863.326294
6388.147939	0.091150	0.179408	1944.267456
6389.211648	1.269840	0.181423	627.301025
6389.212575	0.583843	0.181423	1168.523193
6389.213476	0.092607	0.181423	1251.962524
6389.214364	0.091022	0.181423	1332.789795
6389.215311	0.091084	0.181423	1419.046387
6389.216213	0.091088	0.181423	1501.207397
6389.217107	0.091055	0.181423	1582.610352
6389.218026	0.091029	0.181423	1666.266113
6389.218934	0.091212	0.181423	1749.086792
6389.219841	0.090985	0.181423	1831.610352
6389.220735	0.091033	0.181423	1912.993652
6389.221671	0.091099	0.181423	1998.261963
6390.249458	1.260121	0.179058	604.858032
6390.250360	0.657096	0.179058	1197.558594
6390.251287	0.093607	0.179058	1284.332397
6390.252198	0.091051	0.179058	1367.279907
6390.253111	0.090992	0.179058	1450.355957
6390.254010	0.091022	0.179058	1532.184448
6390.254936	0.091110	0.179058	1616.552002
6390.255837	0.091095	0.179058	1698.628540
6390.256740	0.091036	0.179058	1780.834351
6390.257624	0.090978	0.179058	1861.258667
6390.258575	0.091106	0.179058	1947.900391
6390.259479	0.091099	0.179058	2030.253540
6391.327691	1.218340	0.184524	532.414490
6391.328672	0.591541	0.184524	1112.715820
6391.329581	0.092611	0.184524	1196.899292
6391.330476	0.091095	0.184524	1278.429321
6391.331400	0.091088	0.184524	1362.594360
6391.332300	0.091036	0.184524	1444.527100
6391.333196	0.091080	0.184524	1526.135010
6391.334082	0.091113	0.184524	1606.861328
6391.335013	0.091095	0.184524	1691.670776
6391.335919	0.091106	0.184524	1774.212769
6391.336828	0.091132	0.184524	1857.051392
6391.337731	0.091058	0.184524	1939.277100
6392.359889	1.210144	0.186647	536.093811
6392.360788	0.725878	0.186647	1188.657837
6392.361730	0.094358	0.186647	1277.542969
6392.362634	0.090996	0.186647	1359.803467
6392.363527	0.091058	0.186647	1441.118530
6392.364419	0.091143	0.186647	1522.417725
6392.365356	0.091157	0.186647	1607.832031
6392.366257	0.091095	0.186647	1689.908569
6392.367168	0.091150	0.186647	1772.946167
6392.368058	0.091036	0.186647	1853.968506
6392.369003	0.091099	0.186647	1940.056763
6392.369913	0.091084	0.186647	2022.943237
6393.444300	1.204874	0.180432	528.939819
6393.445269	0.624324	0.180432	1133.909424
6393.446162	0.092893	0.180432	1216.862915
6393.447048	0.091102	0.180432	1297.579590
6393.447956	0.090970	0.180432	1380.180786
6393.448896	0.091077	0.180432	1465.792847
6393.449803	0.091073	0.180432	1548.395996
6393.450697	0.091168	0.180432	1629.900391
6393.451634	0.091029	0.180432	1715.194580
6393.452543	0.091044	0.180432	1797.953369
6393.453443	0.091077	0.180432	1879.922363
6393.454329	0.091014	0.180432	1960.561157
6394.471943	1.261648	0.194506	632.085632
6394.472869	0.595148	0.194506	1183.192383
6394.473792	0.092395	0.194506	1268.473022
6394.474676	0.090992	0.194506	1348.910278
6394.475627	0.091121	0.194506	1435.565918
6394.476520	0.091033	0.194506	1516.858154
6394.477415	0.091022	0.194506	1598.322632
6394.478339	0.091099	0.194506	1682.497803
6394.479263	0.091066	0.194506	1766.642456
6394.480167	0.091014	0.194506	1848.919434
6394.481054	0.091157	0.194506	1929.775879
6394.481999	0.091208	0.194506	2015.967896
6395.559894	1.217640	0.176911	549.155823
6395.560794	0.701503	0.176911	1180.508301
6395.561737	0.094105	0.176911	1269.249512
6395.562651	0.090938	0.176911	1352.366333
6395.563576	0.091022	0.176911	1436.561401
6395.564464	0.090996	0.176911	1517.365967
6395.565412	0.091058	0.176911	1603.689331
6395.566304	0.090967	0.176911	1684.831665
6395.567214	0.091073	0.176911	1767.708130
6395.568105	0.091124	0.176911	1848.899902
6395.569051	0.091011	0.176911	1934.996094
6395.569954	0.090970	0.176911	2017.142456
6396.585953	1.218124	0.194241	550.591980
6396.586850	0.707340	0.194241	1185.075928
6396.587738	0.094424	0.194241	1268.924316
6396.588682	0.091110	0.194241	1354.931763
6396.589589	0.091055	0.194241	1437.518311
6396.590510	0.091135	0.194241	1521.453857
6396.591403	0.091062	0.194241	1602.772217
6396.592375	0.091022	0.194241	1691.245361
6396.593275	0.091095	0.194241	1773.230835
6396.594159	0.090981	0.194241	1853.658447
6396.595103	0.091062	0.194241	1939.620972
6396.596016	0.091088	0.194241	2022.783936
6397.675004	1.268555	0.178252	615.249023
6397.675925	0.618604	0.178252	1184.982910
6397.676848	0.092472	0.178252	1270.334473
6397.677735	0.091066	0.178252	1351.109741
6397.678681	0.091000	0.178252	1437.195557
6397.679573	0.091022	0.178252	1518.386963
6397.680459	0.091088	0.178252	1599.090576
6397.681379	0.091106	0.178252	1682.908081
6397.682304	0.090978	0.178252	1767.062500
6397.683204	0.090948	0.178252	1848.916138
6397.684093	0.091029	0.178252	1929.840942
6397.685021	0.091172	0.178252	2014.448486
6398.699997	1.218318	0.193991	544.588074
6398.700887	0.720762	0.193991	1186.065918
6398.701844	0.093127	0.193991	1275.188843
6398.702738	0.090919	0.193991	1356.470581
6398.703627	0.091084	0.193991	1437.444214
6398.704530	0.091011	0.193991	1519.626953
6398.705460	0.090930	0.193991	1604.192017
6398.706367	0.091036	0.193991	1686.761963
6398.707260	0.090989	0.193991	1768.014893
6398.708192	0.091058	0.193991	1852.881226
6398.709103	0.090981	0.193991	1935.765381
6398.710021	0.091036	0.193991	2019.336792
6399.788502	1.220149	0.179952	551.507324
6399.789396	0.716393	0.179952	1191.962524
6399.790335	0.094354	0.179952	1280.561157
6399.791250	0.091055	0.179952	1363.876221
6399.792158	0.091113	0.179952	1446.607056
6399.793055	0.091066	0.179952	1528.292969
6399.793980	0.091117	0.179952	1612.576172
6399.794876	0.091110	0.179952	1694.210449
6399.795771	0.091051	0.179952	1775.701172
6399.796656	0.091080	0.179952	1856.307251
6399.797605	0.091091	0.179952	1942.752930
6399.798501	0.091077	0.179952	2024.357666
6400.813568	1.229081	0.195183	603.478699
6400.814492	0.596829	0.195183	1154.948364
6400.815401	0.092626	0.195183	1239.145142
6400.816300	0.091018	0.195183	1320.970337
6400.817241	0.091124	0.195183	1406.718262
6400.818144	0.091029	0.195183	1488.917480
6400.819040	0.091073	0.195183	1570.518921
6400.819925	0.091110	0.195183	1651.150879
6400.820856	0.091176	0.195183	1736.035278
6400.821764	0.090967	0.195183	1818.633179
6400.822662	0.091084	0.195183	1900.426636
6400.823588	0.091080	0.195183	1984.766968
6401.902540	1.203900	0.185189	523.696533
6401.903495	0.698573	0.185189	1190.833740
6401.904406	0.092889	0.185189	1275.455933
6401.905301	0.091044	0.185189	1356.940063
6401.906190	0.091000	0.185189	1437.838867
6401.907129	0.091055	0.185189	1523.339233
6401.908028	0.091014	0.185189	1605.161133
6401.908927	0.091044	0.185189	1687.009399
6401.909811	0.090989	0.185189	1767.443481
6401.910755	0.091113	0.185189	1853.454468
6401.911654	0.091062	0.185189	1935.319214
6401.912547	0.091161	0.185189	2016.725830
6402.928588	1.199253	0.197173	525.272827
6402.929482	0.737750	0.197173	1184.821533
6402.930448	0.093197	0.197173	1274.849854
6402.931354	0.091029	0.197173	1357.322144
6402.932258	0.091073	0.197173	1439.652100
6402.933147	0.091106	0.197173	1520.645264
6402.934084	0.091099	0.197173	1606.004639
6402.934996	0.090996	0.197173	1688.993042
6402.935894	0.091014	0.197173	1770.723999
6402.936827	0.091025	0.197173	1855.650635
6402.937732	0.091080	0.197173	1938.078369
6402.938639	0.091128	0.197173	2020.731445
6404.015558	1.198103	0.187936	518.778564
6404.016476	0.714705	0.187936	1174.877441
6404.017413	0.093124	0.187936	1262.134399
6404.018319	0.090846	0.187936	1344.440796
6404.019220	0.091022	0.187936	1426.451416
6404.020161	0.091106	0.187936	1512.182129
6404.021059	0.090970	0.187936	1593.873535
6404.021961	0.091113	0.187936	1676.057739
6404.022847	0.091084	0.187936	1756.758179
6404.023790	0.091139	0.187936	1842.702148
6404.024701	0.091014	0.187936	1925.616211
6404.025597	0.091088	0.187936	2007.230713
6405.043209	1.235120	0.201387	615.089600
6405.044123	0.601527	0.201387	1164.885376
6405.045028	0.092776	0.201387	1248.847534
6405.045916	0.091146	0.201387	1329.785400
6405.046857	0.091106	0.201387	1415.516113
6405.047762	0.091062	0.201387	1497.927246
6405.048669	0.091084	0.201387	1580.540405
6405.049560	0.091040	0.201387	1661.657104
6405.050505	0.091143	0.201387	1747.786865
6405.051409	0.091150	0.201387	1830.186401
6405.052302	0.091128	0.201387	1911.563599
6405.053226	0.091161	0.201387	1995.796265
6406.128097	1.235497	0.185906	564.622009
6406.128996	0.691139	0.185906	1185.955811
6406.129944	0.093655	0.185906	1274.740601
6406.130849	0.091000	0.185906	1357.095337
6406.131750	0.091058	0.185906	1439.138916
6406.132637	0.091179	0.185906	1520.014893
6406.133588	0.091117	0.185906	1606.667114
6406.134498	0.091007	0.185906	1689.483521
6406.135394	0.091033	0.185906	1771.048828
6406.136313	0.091161	0.185906	1854.825684
6406.137220	0.091128	0.185906	1937.478760
6406.138136	0.091077	0.185906	2020.905029
6407.159237	1.199154	0.195570	520.432922
6407.160183	0.680186	0.195570	1163.888428
6407.161098	0.093043	0.195570	1249.022949
6407.162005	0.091051	0.195570	1331.606201
6407.162894	0.091018	0.195570	1412.521240
6407.163850	0.091172	0.195570	1499.681519
6407.164753	0.091003	0.195570	1581.857666
6407.165653	0.091073	0.195570	1663.823364
6407.166542	0.091154	0.195570	1744.858887
6407.167486	0.091102	0.195570	1830.859497
6407.168380	0.091088	0.195570	1912.291870
6407.169271	0.091025	0.195570	1993.395508
6408.239561	1.206573	0.191372	529.685791
6408.240508	0.678856	0.191372	1172.562622
6408.241429	0.093124	0.191372	1258.329590
6408.242358	0.090948	0.191372	1342.820679
6408.243250	0.091025	0.191372	1424.015381
6408.244201	0.090959	0.191372	1510.517822
6408.245101	0.090996	0.191372	1592.414307
6408.245994	0.091040	0.191372	1673.713013
6408.246904	0.091018	0.191372	1756.539429
6408.247844	0.091000	0.191372	1842.079224
6408.248742	0.090894	0.191372	1923.701660
6408.249632	0.091029	0.191372	2004.717529
6409.277400	1.225470	0.191711	544.108643
6409.278303	0.709852	0.191711	1185.105225
6409.279190	0.094369	0.191711	1268.810425
6409.280159	0.091069	0.191711	1357.056641
6409.281071	0.090992	0.191711	1440.041748
6409.281968	0.090956	0.191711	1521.629150
6409.282908	0.091128	0.191711	1607.289429
6409.283810	0.091073	0.191711	1689.437256
6409.284707	0.091099	0.191711	1771.152710
6409.285590	0.091058	0.191711	1851.557251
6409.286521	0.091139	0.191711	1936.407593
6409.287424	0.091102	0.191711	2018.672974
6410.349577	1.279497	0.198390	641.028015
6410.350505	0.584191	0.198390	1183.156982
6410.351402	0.092611	0.198390	1266.229126
6410.352291	0.091007	0.198390	1347.134399
6410.353227	0.091117	0.198390	1432.419922
6410.354135	0.091161	0.198390	1515.193970
6410.355032	0.091066	0.198390	1596.879883
6410.355962	0.091055	0.198390	1681.560791
6410.356865	0.091051	0.198390	1763.779907
6410.357767	0.091066	0.198390	1845.921143
6410.358669	0.091003	0.198390	1928.006226
6410.359605	0.091124	0.198390	2013.298584
6411.395018	1.204325	0.192375	526.289978
6411.395989	0.671605	0.192375	1178.418579
6411.396890	0.092823	0.192375	1262.052490
6411.397786	0.091058	0.192375	1343.640747
6411.398673	0.091047	0.192375	1424.399780
6411.399602	0.091176	0.192375	1509.101807
6411.400509	0.091124	0.192375	1591.751465
6411.401410	0.091091	0.192375	1673.824707
6411.402297	0.091146	0.192375	1754.671387
6411.403252	0.091124	0.192375	1841.695068
6411.404157	0.091011	0.192375	1924.059814
6411.405050	0.091106	0.192375	2005.417480
6412.459495	1.239188	0.202176	563.830688
6412.460420	0.666581	0.202176	1180.417969
6412.461314	0.093424	0.202176	1263.939087
6412.462203	0.091011	0.202176	1344.847656
6412.463145	0.091157	0.202176	1430.717773
6412.464056	0.091029	0.202176	1513.645264
6412.464949	0.091036	0.202176	1594.940796
6412.465880	0.091113	0.202176	1679.767212
6412.466780	0.091172	0.202176	1761.821899
6412.467682	0.090970	0.202176	1843.877197
6412.468570	0.091011	0.202176	1924.694702
6412.469514	0.091165	0.202176	2010.754028
6413.514206	1.212030	0.187239	544.201477
6413.515113	0.703491	0.187239	1182.268066
6413.516038	0.094175	0.187239	1269.379761
6413.516949	0.091036	0.187239	1352.313843
6413.517842	0.090912	0.187239	1433.498169
6413.518733	0.091055	0.187239	1514.627930
6413.519665	0.091095	0.187239	1599.528442
6413.520578	0.091036	0.187239	1682.644653
6413.521481	0.091073	0.187239	1764.883545
6413.522369	0.090967	0.187239	1845.662109
6413.523307	0.091040	0.187239	1931.057617
6413.524210	0.091036	0.187239	2013.263428
6414.569414	1.208976	0.207063	525.904541
6414.570379	0.628037	0.207063	1131.960449
6414.571288	0.092864	0.207063	1216.373657
6414.572176	0.091011	0.207063	1297.191162
6414.573109	0.091187	0.207063	1382.268188
6414.574015	0.091110	0.207063	1464.813477
6414.574942	0.091011	0.207063	1549.180420
6414.575833	0.091139	0.207063	1630.385254
6414.576776	0.091018	0.207063	1716.215332
6414.577677	0.091084	0.207063	1798.281982
6414.578591	0.091099	0.207063	1881.546143
6414.579479	0.091150	0.207063	1962.487305
6415.633392	1.255697	0.194913	585.154785
6415.634301	0.658531	0.194913	1183.759888
6415.635230	0.093065	0.194913	1270.217407
6415.636115	0.091011	0.194913	1350.761963
6415.637052	0.090996	0.194913	1436.025269
6415.637956	0.091077	0.194913	1518.358521
6415.638848	0.091091	0.194913	1599.611938
6415.639788	0.091029	0.194913	1685.179199
6415.640686	0.090992	0.194913	1766.890381
6415.641603	0.091033	0.194913	1850.367432
6415.642492	0.091132	0.194913	1931.383423
6415.643425	0.091047	0.194913	2016.330566
6416.679378	1.215740	0.206358	537.356995
6416.680306	0.691945	0.206358	1179.481567
6416.681203	0.093798	0.206358	1263.618042
6416.682133	0.091040	0.206358	1348.285278
6416.683035	0.091146	0.206358	1430.499146
6416.683935	0.090941	0.206358	1512.346191
6416.684822	0.091095	0.206358	1593.147461
6416.685761	0.091113	0.206358	1678.702881
6416.686652	0.091040	0.206358	1759.819580
6416.687547	0.091088	0.206358	1841.343018
6416.688432	0.091033	0.206358	1921.906982
6416.689377	0.091234	0.206358	2008.123291
6417.750985	1.199582	0.192202	521.818359
6417.751930	0.704550	0.192202	1187.617676
6417.752842	0.092996	0.192202	1272.429687
6417.753741	0.091011	0.192202	1354.248291
6417.754629	0.091077	0.192202	1435.124390
6417.755572	0.091165	0.192202	1521.092529
6417.756467	0.091077	0.192202	1602.606201
6417.757368	0.091047	0.192202	1684.639893
6417.758255	0.091176	0.192202	1765.512573
6417.759188	0.091102	0.192202	1850.510986
6417.760094	0.091051	0.192202	1933.003174
6417.760999	0.091091	0.192202	2015.440796
6418.790867	1.208525	0.211518	531.751160
6418.791817	0.691721	0.211518	1188.886230
6418.792706	0.093362	0.211518	1271.884888
6418.793604	0.091044	0.211518	1353.642090
6418.794488	0.091029	0.211518	1434.111816
6418.795415	0.091025	0.211518	1518.492310
6418.796315	0.091146	0.211518	1600.523926
6418.797215	0.090978	0.211518	1682.403931
6418.798101	0.091077	0.211518	1763.097900
6418.799050	0.091128	0.211518	1849.578369
6418.799956	0.091029	0.211518	1932.050659
6418.800848	0.091165	0.211518	2013.369385
6419.866074	1.229128	0.196476	553.107788
6419.866977	0.707845	0.196476	1192.292236
6419.867864	0.094226	0.196476	1275.870728
6419.868816	0.091055	0.196476	1362.554810
6419.869712	0.091044	0.196476	1444.130005
6419.870613	0.091040	0.196476	1526.157104
6419.871506	0.091066	0.196476	1607.478760
6419.872442	0.091198	0.196476	1692.839600
6419.873339	0.091099	0.196476	1774.555054
6419.874235	0.091106	0.196476	1856.186035
6419.875161	0.091172	0.196476	1940.611206
6419.876066	0.091150	0.196476	2023.101807
6420.903886	1.209038	0.204295	535.603821
6420.904813	0.700302	0.204295	1184.783325
6420.905746	0.092772	0.204295	1271.339844
6420.906662	0.090978	0.204295	1354.675537
6420.907559	0.091080	0.204295	1436.374634
6420.908492	0.091055	0.204295	1521.328613
6420.909396	0.091003	0.204295	1603.595703
6420.910304	0.091025	0.204295	1686.246704
6420.911196	0.091018	0.204295	1767.434814
6420.912142	0.091033	0.204295	1853.551758
6420.913052	0.091011	0.204295	1936.371582
6420.913949	0.091033	0.204295	2018.027954
6421.980621	1.204830	0.199997	533.739807
6421.981513	0.727075	0.199997	1182.290771
6421.982447	0.093420	0.199997	1269.545410
6421.983357	0.091044	0.199997	1352.395142
6421.984247	0.090974	0.199997	1433.362061
6421.985167	0.091099	0.199997	1517.172852
6421.986085	0.091088	0.199997	1600.791260
6421.986996	0.091091	0.199997	1683.775391
6421.987888	0.091102	0.199997	1765.038574
6421.988844	0.091143	0.199997	1852.170898
6421.989746	0.090967	0.199997	1934.222900
6421.990643	0.091088	0.199997	2015.928467
6423.017938	1.201871	0.208126	520.410278
6423.018877	0.705894	0.208126	1183.244263
6423.019805	0.093014	0.208126	1269.561157
6423.020711	0.091025	0.208126	1352.030151
6423.021598	0.091143	0.208126	1432.873657
6423.022542	0.091165	0.208126	1518.932983
6423.023465	0.091121	0.208126	1603.037354
6423.024391	0.090956	0.208126	1687.262451
6423.025278	0.091194	0.208126	1768.151367
6423.026227	0.091139	0.208126	1854.642212
6423.027121	0.091069	0.208126	1936.058228
6423.028009	0.091047	0.208126	2016.908325
6424.094148	1.198180	0.204110	520.010132
6424.095137	0.583817	0.204110	1097.405273
6424.096040	0.092725	0.204110	1181.135620
6424.096931	0.091047	0.204110	1262.258789
6424.097847	0.091102	0.204110	1345.708496
6424.098759	0.091194	0.204110	1428.877319
6424.099663	0.091110	0.204110	1511.240479
6424.100557	0.090948	0.204110	1592.548462
6424.101479	0.091212	0.204110	1676.646118
6424.102385	0.091095	0.204110	1759.178223
6424.103284	0.091172	0.204110	1841.141724
6424.104172	0.091025	0.204110	1921.972290
6425.132511	1.236398	0.205862	561.324524
6425.133421	0.681145	0.205862	1181.166504
6425.134316	0.093915	0.205862	1265.220215
6425.135261	0.091187	0.205862	1351.391479
6425.136168	0.091062	0.205862	1433.984741
6425.137057	0.091146	0.205862	1515.013794
6425.137988	0.091117	0.205862	1599.843628
6425.138893	0.091055	0.205862	1682.248169
6425.139795	0.091124	0.205862	1764.442261
6425.140681	0.091143	0.205862	1845.194580
6425.141635	0.091161	0.205862	1932.162109
6425.142539	0.091110	0.205862	2014.525146
6426.208218	1.226367	0.206765	546.959778
6426.209146	0.688110	0.206765	1185.526123
6426.210040	0.093812	0.206765	1269.394287
6426.210965	0.091022	0.206765	1353.589355
6426.211880	0.091099	0.206765	1436.944580
6426.212782	0.090970	0.206765	1518.999878
6426.213673	0.091102	0.206765	1600.171997
6426.214589	0.091102	0.206765	1683.621704
6426.215497	0.091102	0.206765	1766.342529
6426.216396	0.091033	0.206765	1848.180908
6426.217283	0.091033	0.206765	1928.926880
6426.218227	0.091117	0.206765	2014.941284
6427.247619	1.234966	0.208235	611.308105
6427.248546	0.601501	0.208235	1168.899902
6427.249435	0.092875	0.208235	1251.465576
6427.250321	0.091143	0.208235	1332.217896
6427.251255	0.091128	0.208235	1417.331421
6427.252154	0.091168	0.208235	1499.291626
6427.253058	0.091029	0.208235	1581.581909
6427.253945	0.091091	0.208235	1662.379883
6427.254894	0.091106	0.208235	1748.839478
6427.255799	0.091216	0.208235	1831.389771
6427.256696	0.091099	0.208235	1913.105225
6427.257629	0.091267	0.208235	1998.257446
6428.321275	1.224225	0.207087	597.421753
6428.322196	0.629670	0.207087	1177.348145
6428.323095	0.093032	0.207087	1260.984131
6428.323979	0.091102	0.207087	1341.518555
6428.324921	0.091194	0.207087	1427.423096
6428.325827	0.091135	0.207087	1509.991577
6428.326731	0.091066	0.207087	1592.314941
6428.327620	0.091172	0.207087	1673.366699
6428.328568	0.091212	0.207087	1759.835815
6428.329470	0.091040	0.207087	1841.953979
6428.330358	0.091066	0.207087	1922.820312
6428.331289	0.091190	0.207087	2007.718384
6429.361630	1.222500	0.208714	547.680054
6429.362562	0.690055	0.208714	1190.811279
6429.363453	0.093809	0.208714	1274.394775
6429.364342	0.091099	0.208714	1355.381470
6429.365290	0.091091	0.208714	1441.736084
6429.366193	0.091110	0.208714	1524.008057
6429.367077	0.091091	0.208714	1604.532715
6429.368010	0.091234	0.208714	1689.654175
6429.368912	0.091099	0.208714	1771.825195
6429.369809	0.091121	0.208714	1853.560425
6429.370698	0.091183	0.208714	1934.621948
6429.371643	0.091318	0.208714	2020.917847
6430.435301	1.231897	0.212469	562.976929
6430.436216	0.681522	0.212469	1186.569824
6430.437096	0.093794	0.212469	1269.108521
6430.438038	0.091110	0.212469	1354.933838
6430.438948	0.091135	0.212469	1437.866943
6430.439848	0.091033	0.212469	1519.796387
6430.440735	0.091154	0.212469	1600.649658
6430.441685	0.091106	0.212469	1687.200317
6430.442584	0.091095	0.212469	1769.094727
6430.443472	0.091069	0.212469	1849.964355
6430.444399	0.091154	0.212469	1934.463745
6430.445306	0.091124	0.212469	2017.113403
6431.476172	1.207086	0.209524	528.703735
6431.477106	0.711804	0.209524	1193.528809
6431.478028	0.093230	0.209524	1279.486816
6431.478938	0.091077	0.209524	1362.366577
6431.479830	0.091102	0.209524	1443.629883
6431.480778	0.091143	0.209524	1530.033081
6431.481676	0.091172	0.209524	1611.905396
6431.482570	0.091146	0.209524	1693.390137
6431.483459	0.091029	0.209524	1774.314941
6431.484394	0.091150	0.209524	1859.540039
6431.485298	0.091161	0.209524	1941.949463
6431.486195	0.091069	0.209524	2023.638672
6432.548832	1.241462	0.213762	572.314209
6432.549740	0.675143	0.213762	1185.343872
6432.550696	0.093376	0.213762	1274.611816
6432.551592	0.091227	0.213762	1356.351074
6432.552494	0.091212	0.213762	1438.624390
6432.553377	0.091168	0.213762	1519.125977
6432.554315	0.091172	0.213762	1604.645142
6432.555223	0.091040	0.213762	1687.309448
6432.556119	0.091139	0.213762	1768.969971
6432.557043	0.091121	0.213762	1853.165405
6432.557954	0.091194	0.213762	1936.243042
6432.558869	0.091212	0.213762	2019.702148
6433.590267	1.225268	0.209653	596.705750
6433.591189	0.610939	0.209653	1159.991211
6433.592097	0.093025	0.209653	1244.457764
6433.592989	0.091183	0.209653	1325.792847
6433.593931	0.091293	0.209653	1411.790649
6433.594828	0.091165	0.209653	1493.565308
6433.595726	0.091099	0.209653	1575.371826
6433.596612	0.091241	0.209653	1656.211792
6433.597555	0.091198	0.209653	1742.211060
6433.598459	0.091128	0.209653	1824.590698
6433.599361	0.091205	0.209653	1906.857422
6433.600288	0.091187	0.209653	1991.387329
6434.663928	1.257100	0.213863	589.579651
6434.664861	0.622441	0.213863	1170.317505
6434.665757	0.093073	0.213863	1253.710449
6434.666640	0.091051	0.213863	1334.108521
6434.667583	0.091146	0.213863	1420.059448
6434.668482	0.091058	0.213863	1501.920898
6434.669379	0.091088	0.213863	1583.626465
6434.670309	0.091198	0.213863	1668.440186
6434.671215	0.091201	0.213863	1751.068481
6434.672116	0.091194	0.213863	1833.234131
6434.672999	0.091110	0.213863	1913.683960
6434.673946	0.091208	0.213863	2000.058350
6435.704290	1.223236	0.217299	552.902710
6435.705214	0.677856	0.217299	1179.242065
6435.706104	0.093915	0.217299	1262.826172
6435.707053	0.091190	0.217299	1349.365601
6435.707945	0.091241	0.217299	1430.752930
6435.708841	0.091135	0.217299	1512.410156
6435.709732	0.091143	0.217299	1593.618164
6435.710687	0.091282	0.217299	1680.792236
6435.711593	0.091139	0.217299	1763.364136
6435.712489	0.091077	0.217299	1844.968872
6435.713403	0.091285	0.217299	1928.403687
6435.714300	0.091190	0.217299	2010.201294
6436.778462	1.239950	0.212400	567.897095
6436.779368	0.685942	0.212400	1189.360840
6436.780307	0.093153	0.212400	1276.831543
6436.781220	0.091124	0.212400	1360.027954
6436.782126	0.091205	0.212400	1442.659546
6436.783014	0.091113	0.212400	1523.568115
6436.783950	0.091146	0.212400	1608.880981
6436.784855	0.091121	0.212400	1691.345093
6436.785749	0.091121	0.212400	1772.806885
6436.786677	0.091172	0.212400	1857.414429
6436.787583	0.091230	0.212400	1940.069214
6436.788480	0.091025	0.212400	2021.718994
6437.817816	1.224928	0.216997	548.767761
6437.818725	0.698635	0.216997	1183.827148
6437.819612	0.094241	0.216997	1267.418701
6437.820572	0.091165	0.216997	1354.936646
6437.821483	0.091172	0.216997	1437.994263
6437.822373	0.091102	0.216997	1519.075317
6437.823318	0.091179	0.216997	1605.239624
6437.824216	0.091241	0.216997	1687.174438
6437.825104	0.091143	0.216997	1768.109009
6437.825990	0.091172	0.216997	1848.887329
6437.826924	0.091190	0.216997	1934.058960
6437.827831	0.091124	0.216997	2016.708618
6438.893004	1.200875	0.214576	525.983398
6438.893988	0.603138	0.214576	1119.471680
6438.894894	0.092670	0.214576	1203.430420
6438.895788	0.091040	0.214576	1284.820190
6438.896684	0.091139	0.214576	1366.480713
6438.897633	0.091157	0.214576	1452.988892
6438.898540	0.091165	0.214576	1535.675171
6438.899427	0.091110	0.214576	1616.489380
6438.900348	0.091143	0.214576	1700.431641
6438.901252	0.091102	0.214576	1782.788086
6438.902146	0.091198	0.214576	1864.318604
6438.903033	0.091110	0.214576	1945.132812
6439.932387	1.227107	0.221126	564.469177
6439.933279	0.705450	0.221126	1193.730957
6439.934221	0.093256	0.221126	1281.577759
6439.935131	0.091036	0.221126	1364.420898
6439.936048	0.091201	0.221126	1448.052368
6439.936940	0.091069	0.221126	1529.286255
6439.937895	0.091058	0.221126	1616.246948
6439.938795	0.091117	0.221126	1698.252197
6439.939686	0.091161	0.221126	1779.476562
6439.940623	0.091154	0.221126	1864.887451
6439.941531	0.091146	0.221126	1947.648193
6439.942458	0.091132	0.221126	2032.127197
6441.006540	1.201117	0.209887	526.089233
6441.007523	0.584846	0.209887	1100.993042
6441.008434	0.092435	0.209887	1185.201660
6441.009360	0.091132	0.209887	1269.589478
6441.010250	0.091029	0.209887	1350.605347
6441.011199	0.091132	0.209887	1437.089233
6441.012094	0.091161	0.209887	1518.678223
6441.012980	0.091172	0.209887	1599.456543
6441.013916	0.091143	0.209887	1684.765991
6441.014819	0.091143	0.209887	1767.067749
6441.015742	0.091128	0.209887	1851.178833
6441.016633	0.091106	0.209887	1932.354248
6442.047979	1.245802	0.221238	573.068970
6442.048905	0.675970	0.221238	1199.017578
6442.049793	0.093864	0.221238	1282.368408
6442.050715	0.091132	0.221238	1366.391724
6442.051651	0.091139	0.221238	1451.697754
6442.052570	0.091176	0.221238	1535.488037
6442.053457	0.091198	0.221238	1616.380249
6442.054391	0.091135	0.221238	1701.500610
6442.055297	0.091150	0.221238	1784.082397
6442.056215	0.091161	0.221238	1867.768066
6442.057101	0.091165	0.221238	1948.539795
6442.058055	0.091179	0.221238	2035.524780
6443.119055	1.212426	0.214721	531.042419
6443.120003	0.648450	0.214721	1145.772705
6443.120921	0.093073	0.214721	1231.213257
6443.121818	0.091091	0.214721	1312.922119
6443.122751	0.091249	0.214721	1398.057251
6443.123655	0.091208	0.214721	1480.509766
6443.124557	0.091179	0.214721	1562.753418
6443.125442	0.091102	0.214721	1643.378906
6443.126386	0.091230	0.214721	1729.500488
6443.127291	0.091132	0.214721	1811.974609
6443.128187	0.091066	0.214721	1893.569458
6443.129075	0.091128	0.214721	1974.491089
6444.165073	1.210657	0.226947	530.267639
6444.166015	0.687642	0.226947	1178.026123
6444.166916	0.093384	0.226947	1262.164917
6444.167809	0.091022	0.226947	1343.447266
6444.168696	0.091150	0.226947	1424.297241
6444.169634	0.091194	0.226947	1509.837036
6444.170540	0.091121	0.226947	1592.392334
6444.171444	0.091121	0.226947	1674.765381
6444.172329	0.091102	0.226947	1755.390869
6444.173277	0.091260	0.226947	1841.905151
6444.174188	0.091121	0.226947	1924.916016
6444.175086	0.091069	0.226947	2006.696289
6445.229023	1.216941	0.209814	557.358948
6445.229983	0.592013	0.209814	1125.691406
6445.230884	0.092776	0.209814	1209.282471
6445.231781	0.091146	0.209814	1291.040649
6445.232713	0.091113	0.209814	1375.958252
6445.233613	0.091176	0.209814	1458.016235
6445.234513	0.091165	0.209814	1540.064331
6445.235396	0.091172	0.209814	1620.569092
6445.236328	0.091172	0.209814	1705.541260
6445.237239	0.091117	0.209814	1788.548828
6445.238133	0.091025	0.209814	1869.925537
6445.239053	0.091187	0.209814	1953.817139
6446.282189	1.224056	0.229827	542.256958
6446.283159	0.603043	0.229827	1127.208862
6446.284073	0.092915	0.229827	1212.133179
6446.284965	0.091099	0.229827	1293.393188
6446.285905	0.091245	0.229827	1379.163574
6446.286803	0.091190	0.229827	1461.052368
6446.287704	0.091154	0.229827	1543.181763
6446.288597	0.091208	0.229827	1624.630981
6446.289534	0.091201	0.229827	1710.086426
6446.290440	0.091208	0.229827	1792.721313
6446.291337	0.091172	0.229827	1874.502441
6446.292243	0.091212	0.229827	1957.140625
6447.340510	1.223031	0.218644	557.702087
6447.341407	0.700778	0.218644	1186.299561
6447.342350	0.094098	0.218644	1275.033936
6447.343259	0.091146	0.218644	1357.885864
6447.344159	0.091069	0.218644	1439.848267
6447.345049	0.091146	0.218644	1520.968384
6447.346001	0.091066	0.218644	1607.662842
6447.346903	0.091124	0.218644	1689.856934
6447.347807	0.091099	0.218644	1772.210083
6447.348692	0.091014	0.218644	1852.757812
6447.349640	0.091143	0.218644	1939.161011
6447.350543	0.091066	0.218644	2021.393311
6448.400847	1.201410	0.225279	526.217529
6448.401739	0.734575	0.225279	1181.458496
6448.402705	0.093149	0.225279	1271.440796
6448.403608	0.091135	0.225279	1353.735962
6448.404506	0.091143	0.225279	1435.582031
6448.405414	0.091216	0.225279	1518.406006
6448.406326	0.091263	0.225279	1601.638306
6448.407233	0.091066	0.225279	1684.234863
6448.408122	0.091139	0.225279	1765.257324
6448.409052	0.091132	0.225279	1850.009766
6448.409954	0.091238	0.225279	1932.306274
6448.410855	0.091117	0.225279	2014.402588
6449.450963	1.217216	0.220098	544.095398
6449.451860	0.699990	0.220098	1171.986572
6449.452820	0.093047	0.220098	1261.311523
6449.453738	0.091000	0.220098	1344.849243
6449.454630	0.091091	0.220098	1426.102661
6449.455547	0.091168	0.220098	1509.703857
6449.456451	0.091208	0.220098	1592.156372
6449.457350	0.091014	0.220098	1673.978271
6449.458243	0.091077	0.220098	1755.309692
6449.459190	0.091252	0.220098	1841.725708
6449.460084	0.091227	0.220098	1923.282471
6449.460991	0.091095	0.220098	2005.905640
6450.517957	1.202578	0.224252	521.918884
6450.518927	0.625829	0.224252	1128.972900
6450.519836	0.092798	0.224252	1213.326172
6450.520742	0.091080	0.224252	1295.844971
6450.521631	0.091198	0.224252	1376.919556
6450.522582	0.091176	0.224252	1463.627441
6450.523492	0.091084	0.224252	1546.513916
6450.524385	0.091132	0.224252	1627.894409
6450.525315	0.091168	0.224252	1712.680908
6450.526207	0.091219	0.224252	1794.048706
6450.527099	0.091124	0.224252	1875.331543
6450.527986	0.091187	0.224252	1956.213989
6451.561984	1.251119	0.223168	618.052979
6451.562902	0.610301	0.223168	1178.309814
6451.563792	0.093036	0.223168	1261.111694
6451.564677	0.091135	0.223168	1341.766357
6451.565611	0.091252	0.223168	1426.996094
6451.566523	0.091040	0.223168	1510.024658
6451.567436	0.091165	0.223168	1593.257935
6451.568329	0.091121	0.223168	1674.628662
6451.569274	0.091208	0.223168	1760.820679
6451.570184	0.091110	0.223168	1843.730469
6451.571080	0.091091	0.223168	1925.348267
6451.572019	0.091143	0.223168	2010.931152
6452.635132	1.231351	0.224888	599.668091
6452.636060	0.600264	0.224888	1156.712891
6452.636960	0.092798	0.224888	1240.230957
6452.637852	0.091117	0.224888	1321.507324
6452.638792	0.091176	0.224888	1407.212280
6452.639689	0.091194	0.224888	1489.013184
6452.640584	0.091069	0.224888	1570.520264
6452.641469	0.091080	0.224888	1651.126343
6452.642418	0.091238	0.224888	1737.711060
6452.643311	0.091106	0.224888	1819.068726
6452.644211	0.091091	0.224888	1901.050903
6452.645140	0.091157	0.224888	1985.735962
6453.673427	1.222793	0.225960	549.034058
6453.674326	0.714009	0.225960	1190.927979
6453.675260	0.093739	0.225960	1278.480225
6453.676165	0.091080	0.225960	1360.907959
6453.677059	0.091080	0.225960	1442.333740
6453.677944	0.091121	0.225960	1522.975464
6453.678893	0.091216	0.225960	1609.539307
6453.679794	0.091073	0.225960	1691.596069
6453.680693	0.091124	0.225960	1773.516846
6453.681622	0.091084	0.225960	1858.133911
6453.682530	0.091143	0.225960	1940.891357
6453.683439	0.091073	0.225960	2023.676758
6454.751177	1.212217	0.223510	532.163208
6454.752153	0.594368	0.223510	1112.266113
6454.753051	0.092787	0.223510	1195.588745
6454.753949	0.091055	0.223510	1277.355835
6454.754873	0.091205	0.223510	1361.629150
6454.755776	0.091234	0.223510	1444.013550
6454.756682	0.091062	0.223510	1526.515747
6454.757570	0.091113	0.223510	1607.424316
6454.758496	0.091205	0.223510	1691.880005
6454.759405	0.091245	0.223510	1774.821777
6454.760308	0.091223	0.223510	1857.196289
6454.761195	0.091091	0.223510	1937.994263
6455.785948	1.228715	0.230653	555.378967
6455.786850	0.696394	0.230653	1183.526367
6455.787742	0.094149	0.230653	1267.507446
6455.788699	0.091165	0.230653	1354.751953
6455.789613	0.091095	0.230653	1438.012695
6455.790509	0.091161	0.230653	1519.692871
6455.791434	0.091080	0.230653	1603.942139
6455.792330	0.091168	0.230653	1685.628906
6455.793241	0.091069	0.230653	1768.593018
6455.794130	0.091139	0.230653	1849.615479
6455.795063	0.091187	0.230653	1934.692505
6455.795959	0.091150	0.230653	2016.362793
6456.866775	1.211645	0.221968	536.758972
6456.867674	0.707970	0.221968	1173.223999
6456.868636	0.093186	0.221968	1262.869019
6456.869536	0.091047	0.221968	1344.811646
6456.870431	0.091110	0.221968	1426.354736
6456.871358	0.091121	0.221968	1510.823486
6456.872267	0.091252	0.221968	1593.771973
6456.873169	0.091077	0.221968	1675.923096
6456.874054	0.091121	0.221968	1756.564819
6456.875015	0.091113	0.221968	1844.124634
6456.875914	0.091007	0.221968	1925.939941
6456.876814	0.091084	0.221968	2007.915527
6457.899475	1.216249	0.233198	543.663269
6457.900379	0.711207	0.233198	1186.594727
6457.901313	0.094182	0.233198	1274.560791
6457.902216	0.091176	0.233198	1356.892334
6457.903107	0.091187	0.233198	1438.139526
6457.903989	0.091095	0.233198	1518.485352
6457.904919	0.091245	0.233198	1603.343262
6457.905820	0.091058	0.233198	1685.386841
6457.906725	0.091154	0.233198	1767.880859
6457.907615	0.091080	0.233198	1848.942383
6457.908562	0.091143	0.233198	1935.254395
6457.909465	0.091135	0.233198	2017.549561
6458.981852	1.223723	0.223043	547.004272
6458.982775	0.672876	0.223043	1168.068848
6458.983672	0.093578	0.223043	1252.008179
6458.984597	0.091088	0.223043	1336.264282
6458.985499	0.091088	0.223043	1418.425293
6458.986397	0.091088	0.223043	1500.222046
6458.987283	0.091069	0.223043	1580.909424
6458.988233	0.091139	0.223043	1667.491455
6458.989132	0.091187	0.223043	1749.468140
6458.990033	0.091102	0.223043	1831.551270
6458.990921	0.091143	0.223043	1912.485840
6458.991852	0.091212	0.223043	1997.404297
6460.013005	1.202084	0.235398	527.714722
6460.013897	0.732235	0.235398	1180.868408
6460.014848	0.093311	0.235398	1269.606689
6460.015758	0.091058	0.235398	1352.469727
6460.016656	0.091124	0.235398	1434.299316
6460.017563	0.091106	0.235398	1516.932373
6460.018480	0.091198	0.235398	1600.560547
6460.019388	0.091106	0.235398	1683.284790
6460.020280	0.091154	0.235398	1764.593750
6460.021214	0.091223	0.235398	1849.796143
6460.022119	0.091139	0.235398	1932.276855
6460.023021	0.091091	0.235398	2014.441162
6461.096395	1.205189	0.226616	530.283264
6461.097296	0.715968	0.226616	1175.370361
6461.098273	0.092992	0.226616	1266.223511
6461.099178	0.091106	0.226616	1348.674438
6461.100070	0.091099	0.226616	1429.934448
6461.101011	0.091212	0.226616	1515.765137
6461.101907	0.091216	0.226616	1597.494507
6461.102815	0.091095	0.226616	1680.208740
6461.103702	0.091088	0.226616	1761.003540
6461.104628	0.091205	0.226616	1845.459229
6461.105528	0.091216	0.226616	1927.553467
6461.106434	0.091102	0.226616	2010.092163
6462.127052	1.210192	0.234121	532.484375
6462.128036	0.585989	0.234121	1109.097290
6462.128947	0.092439	0.234121	1193.309204
6462.129849	0.091055	0.234121	1275.440552
6462.130779	0.091121	0.234121	1360.182739
6462.131683	0.091165	0.234121	1442.595459
6462.132591	0.091113	0.234121	1525.326294
6462.133482	0.091066	0.234121	1606.465820
6462.134420	0.091198	0.234121	1692.009033
6462.135317	0.091154	0.234121	1773.773804
6462.136219	0.091179	0.234121	1856.017456
6462.137109	0.091113	0.234121	1937.108276
6463.209427	1.214894	0.226290	536.983093
6463.210319	0.718008	0.226290	1177.446045
6463.211276	0.093281	0.226290	1266.716187
6463.212186	0.091121	0.226290	1349.635986
6463.213076	0.091154	0.226290	1430.762695
6463.214000	0.091223	0.226290	1515.052856
6463.214909	0.091194	0.226290	1597.948120
6463.215819	0.091157	0.226290	1680.901245
6463.216719	0.091077	0.226290	1762.870239
6463.217644	0.091256	0.226290	1847.282104
6463.218552	0.091113	0.226290	1930.012939
6463.219460	0.091124	0.226290	2012.753784
6464.242648	1.210690	0.235567	543.599670
6464.243550	0.715521	0.235567	1188.999878
6464.244494	0.094329	0.235567	1278.046143
6464.245396	0.091179	0.235567	1360.289795
6464.246298	0.091055	0.235567	1442.421143
6464.247185	0.091051	0.235567	1523.183350
6464.248111	0.091183	0.235567	1607.618652
6464.249023	0.091077	0.235567	1690.680542
6464.249923	0.091161	0.235567	1772.725342
6464.250810	0.091205	0.235567	1853.624023
6464.251757	0.091154	0.235567	1939.946411
6464.252649	0.091088	0.235567	2021.196533
6465.323462	1.200586	0.227784	523.455505
6465.324415	0.666160	0.227784	1158.305664
6465.325326	0.093160	0.227784	1243.174805
6465.326217	0.091095	0.227784	1324.340454
6465.327103	0.091150	0.227784	1405.099243
6465.328038	0.091176	0.227784	1490.348389
6465.328948	0.091113	0.227784	1573.261475
6465.329850	0.091073	0.227784	1655.409302
6465.330742	0.091102	0.227784	1736.672607
6465.331691	0.091102	0.227784	1823.128662
6465.332598	0.091154	0.227784	1905.804932
6465.333489	0.091077	0.227784	1986.954224
6466.357763	1.271532	0.235595	628.136841
6466.358686	0.605175	0.235595	1186.713013
6466.359582	0.092802	0.235595	1269.863159
6466.360467	0.091044	0.235595	1350.436890
6466.361395	0.091135	0.235595	1435.010376
6466.362304	0.091058	0.235595	1517.782471
6466.363192	0.091022	0.235595	1598.609741
6466.364123	0.091172	0.235595	1683.490723
6466.365036	0.091113	0.235595	1766.677124
6466.365937	0.091143	0.235595	1848.796631
6466.366827	0.091084	0.235595	1929.861328
6466.367774	0.091252	0.235595	2016.277344
6467.435979	1.199634	0.232179	523.040283
6467.436875	0.732902	0.232179	1179.720093
6467.437834	0.093149	0.232179	1269.050415
6467.438736	0.091062	0.232179	1351.188354
6467.439656	0.091066	0.232179	1434.968750
6467.440551	0.091165	0.232179	1516.561035
6467.441492	0.091157	0.232179	1602.339966
6467.442388	0.091150	0.232179	1684.010254
6467.443280	0.091223	0.232179	1765.381348
6467.444211	0.091143	0.232179	1850.235107
6467.445114	0.091022	0.232179	1932.427734
6467.446018	0.091095	0.232179	2014.777588
6468.473802	1.199128	0.236776	526.417358
6468.474782	0.616289	0.236776	1130.380615
6468.475676	0.092878	0.236776	1213.413940
6468.476585	0.091110	0.236776	1296.232544
6468.477490	0.091033	0.236776	1378.617187
6468.478439	0.091102	0.236776	1465.073242
6468.479338	0.090923	0.236776	1546.812866
6468.480226	0.091084	0.236776	1627.695435
6468.481151	0.091113	0.236776	1711.975220
6468.482068	0.091073	0.236776	1795.489136
6468.482986	0.091029	0.236776	1879.053833
6468.483874	0.091088	0.236776	1959.939697
6469.547990	1.218545	0.235603	541.033936
6469.548893	0.712918	0.235603	1184.798462
6469.549780	0.094413	0.235603	1268.542603
6469.550734	0.091176	0.235603	1355.524048
6469.551640	0.091099	0.235603	1438.059448
6469.552532	0.091154	0.235603	1519.368408
6469.553470	0.091106	0.235603	1604.825806
6469.554369	0.091176	0.235603	1686.792603
6469.555271	0.091099	0.235603	1768.963623
6469.556157	0.091143	0.235603	1849.715942
6469.557096	0.091249	0.235603	1935.398560
6469.558001	0.091069	0.235603	2017.816284
6470.590441	1.252357	0.234999	586.103210
6470.591380	0.622507	0.234999	1170.637573
6470.592278	0.092897	0.234999	1254.058838
6470.593200	0.091143	0.234999	1338.092285
6470.594113	0.091168	0.234999	1421.328857
6470.595022	0.091084	0.234999	1504.124146
6470.595909	0.091088	0.234999	1584.918945
6470.596837	0.091143	0.234999	1669.499268
6470.597741	0.091135	0.234999	1751.885498
6470.598639	0.091194	0.234999	1833.777588
6470.599528	0.091165	0.234999	1914.822876
6470.600482	0.091216	0.234999	2001.842773
6471.658963	1.214414	0.241440	534.342224
6471.659903	0.693267	0.241440	1186.012939
6471.660809	0.093523	0.241440	1270.744751
6471.661707	0.091124	0.241440	1352.574341
6471.662595	0.091117	0.241440	1433.486206
6471.663533	0.091172	0.241440	1519.005371
6471.664438	0.091069	0.241440	1601.423096
6471.665340	0.091143	0.241440	1683.633667
6471.666229	0.091135	0.241440	1764.652954
6471.667168	0.091146	0.241440	1850.239258
6471.668074	0.091091	0.241440	1932.767944
6471.668967	0.091128	0.241440	2014.145142
6472.709059	1.198363	0.231756	518.891174
6472.710028	0.637156	0.231756	1136.295166
6472.710941	0.092787	0.231756	1221.009521
6472.711848	0.091113	0.231756	1303.649292
6472.712736	0.091040	0.231756	1384.492798
6472.713694	0.091201	0.231756	1471.863525
6472.714597	0.091062	0.231756	1554.092529
6472.715493	0.091106	0.231756	1635.723511
6472.716423	0.091073	0.231756	1720.421387
6472.717328	0.091179	0.231756	1802.938599
6472.718218	0.091099	0.231756	1884.016357
6472.719104	0.091106	0.231756	1964.736206
6473.769985	1.279614	0.245094	621.892578
6473.770907	0.611576	0.245094	1185.765625
6473.771805	0.092959	0.245094	1269.242798
6473.772688	0.091036	0.245094	1349.627930
6473.773620	0.091194	0.245094	1434.620605
6473.774530	0.091029	0.245094	1517.457031
6473.775429	0.091110	0.245094	1599.364624
6473.776359	0.091110	0.245094	1684.096558
6473.777259	0.091263	0.245094	1766.233643
6473.778156	0.091124	0.245094	1847.972168
6473.779047	0.091139	0.245094	1929.177002
6473.779992	0.091080	0.245094	2015.247925
6474.826713	1.231135	0.232610	549.086304
6474.827639	0.685660	0.232610	1184.007812
6474.828532	0.093900	0.232610	1267.860596
6474.829450	0.091058	0.232610	1351.452148
6474.830354	0.091168	0.232610	1433.868164
6474.831262	0.091069	0.232610	1516.559082
6474.832154	0.091157	0.232610	1597.871338
6474.833080	0.091245	0.232610	1682.364258
6474.833984	0.090992	0.232610	1764.621460
6474.834886	0.091117	0.232610	1846.808960
6474.835774	0.091077	0.232610	1927.685059
6474.836736	0.091091	0.232610	2015.314941
6475.880925	1.226158	0.245006	556.675964
6475.881822	0.710131	0.245006	1193.663086
6475.882758	0.094354	0.245006	1281.978638
6475.883660	0.091176	0.245006	1364.218994
6475.884563	0.091007	0.245006	1446.398437
6475.885448	0.091069	0.245006	1526.994751
6475.886383	0.091146	0.245006	1612.216431
6475.887290	0.091146	0.245006	1694.886108
6475.888188	0.091088	0.245006	1776.682861
6475.889073	0.091157	0.245006	1857.357056
6475.890009	0.091150	0.245006	1942.673340
6475.890915	0.091025	0.245006	2025.142334
6476.944343	1.222526	0.231003	546.468933
6476.945250	0.700052	0.231003	1181.416504
6476.946190	0.093798	0.231003	1269.586304
6476.947097	0.091143	0.231003	1352.252686
6476.948002	0.091249	0.231003	1434.832886
6476.948889	0.091190	0.231003	1515.718628
6476.949832	0.091267	0.231003	1601.783447
6476.950739	0.091154	0.231003	1684.459717
6476.951630	0.091135	0.231003	1765.661255
6476.952542	0.091161	0.231003	1848.799927
6476.953456	0.091187	0.231003	1932.144409
6476.954360	0.091128	0.231003	2014.524048
6477.991876	1.197144	0.246846	517.166016
6477.992847	0.626140	0.246846	1125.148071
6477.993758	0.092904	0.246846	1209.783691
6477.994660	0.091128	0.246846	1291.981079
6477.995549	0.091187	0.246846	1373.045898
6477.996495	0.091084	0.246846	1459.211304
6477.997398	0.091194	0.246846	1541.559326
6477.998297	0.091128	0.246846	1623.483398
6477.999231	0.091216	0.246846	1708.678955
6478.000132	0.091168	0.246846	1790.821533
6478.001020	0.091161	0.246846	1871.772461
6478.001908	0.091168	0.246846	1952.729858
6479.060959	1.230278	0.233915	563.467468
6479.061853	0.706084	0.233915	1194.706543
6479.062805	0.093281	0.233915	1283.510254
6479.063704	0.091099	0.233915	1365.407959
6479.064606	0.091099	0.233915	1447.578979
6479.065492	0.091007	0.233915	1528.211304
6479.066436	0.091293	0.233915	1614.391602
6479.067345	0.091208	0.233915	1697.300171
6479.068248	0.091135	0.233915	1779.595337
6479.069179	0.091271	0.233915	1864.568359
6479.070085	0.091260	0.233915	1947.249756
6479.070990	0.091252	0.233915	2029.833252
6480.103895	1.222859	0.248321	550.286499
6480.104801	0.702455	0.248321	1186.710571
6480.105737	0.094211	0.248321	1274.892456
6480.106646	0.091121	0.248321	1357.721069
6480.107553	0.091011	0.248321	1440.267822
6480.108440	0.091157	0.248321	1521.124268
6480.109394	0.091190	0.248321	1608.119751
6480.110296	0.091139	0.248321	1690.327026
6480.111199	0.091139	0.248321	1772.625488
6480.112086	0.091117	0.248321	1853.446167
6480.113015	0.091154	0.248321	1938.127808
6480.113921	0.091066	0.248321	2020.633301
6481.176549	1.246252	0.235535	572.029846
6481.177468	0.662659	0.235535	1181.013184
6481.178360	0.093516	0.235535	1264.429077
6481.179289	0.091095	0.235535	1349.056274
6481.180203	0.091157	0.235535	1432.374023
6481.181106	0.091033	0.235535	1514.576538
6481.181992	0.091088	0.235535	1595.280151
6481.182937	0.091132	0.235535	1681.399536
6481.183843	0.091029	0.235535	1763.871826
6481.184738	0.091091	0.235535	1845.398560
6481.185626	0.091051	0.235535	1926.251831
6481.186573	0.091143	0.235535	2012.563843
6482.217426	1.202109	0.248647	532.534485
6482.218329	0.726958	0.248647	1188.977539
6482.219274	0.094479	0.248647	1278.260010
6482.220178	0.091047	0.248647	1360.566772
6482.221076	0.091099	0.248647	1442.373291
6482.221965	0.091084	0.248647	1523.346924
6482.222903	0.091124	0.248647	1608.821533
6482.223813	0.091150	0.248647	1691.767944
6482.224713	0.091143	0.248647	1773.796265
6482.225605	0.091165	0.248647	1855.114990
6482.226546	0.091234	0.248647	1940.966309
6482.227444	0.091091	0.248647	2022.766357
6483.291099	1.219486	0.239068	546.329773
6483.291999	0.703564	0.239068	1179.537842
6483.292956	0.093040	0.239068	1268.576660
6483.293846	0.091014	0.239068	1349.579468
6483.294735	0.091113	0.239068	1430.579224
6483.295634	0.091058	0.239068	1512.440674
6483.296567	0.091143	0.239068	1597.476685
6483.297474	0.091205	0.239068	1680.199463
6483.298363	0.091132	0.239068	1761.215454
6483.299294	0.091198	0.239068	1846.120361
6483.300200	0.091176	0.239068	1928.725342
6483.301099	0.091040	0.239068	2010.570312
6484.330963	1.204926	0.249026	534.986938
6484.331864	0.714770	0.249026	1178.995117
6484.332806	0.094420	0.249026	1267.938965
6484.333713	0.091154	0.249026	1350.615234
6484.334606	0.091077	0.249026	1431.946655
6484.335495	0.091080	0.249026	1512.917114
6484.336435	0.091143	0.249026	1598.591187
6484.337331	0.091132	0.249026	1680.245117
6484.338247	0.091040	0.249026	1763.637817
6484.339155	0.091047	0.249026	1846.308838
6484.340102	0.091154	0.249026	1932.631226
6484.341007	0.091113	0.249026	2015.088745
6485.405655	1.220709	0.241316	540.774170
6485.406578	0.688352	0.241316	1176.123047
6485.407470	0.093790	0.241316	1259.783936
6485.408390	0.091121	0.241316	1343.614868
6485.409298	0.091230	0.241316	1426.452148
6485.410207	0.091077	0.241316	1509.240845
6485.411096	0.091249	0.241316	1590.360962
6485.412015	0.091212	0.241316	1674.184937
6485.412927	0.091128	0.241316	1757.293579
6485.413831	0.091029	0.241316	1839.583862
6485.414722	0.091055	0.241316	1920.713623
6485.415670	0.091201	0.241316	2007.172363
6486.445530	1.223148	0.249308	541.854675
6486.446462	0.676589	0.249308	1172.435913
6486.447352	0.093604	0.249308	1255.743042
6486.448275	0.091036	0.249308	1339.769653
6486.449196	0.091132	0.249308	1423.701904
6486.450100	0.091033	0.249308	1505.995483
6486.451000	0.091099	0.249308	1587.984253
6486.451926	0.091176	0.249308	1672.412842
6486.452823	0.091179	0.249308	1754.200562
6486.453722	0.091084	0.249308	1836.085083
6486.454612	0.091051	0.249308	1917.120483
6486.455549	0.091165	0.249308	2002.541626
6487.519694	1.210144	0.245916	536.093811
6487.520593	0.723962	0.245916	1186.936035
6487.521523	0.094640	0.245916	1274.951172
6487.522434	0.091084	0.245916	1357.928711
6487.523345	0.091073	0.245916	1440.896240
6487.524235	0.091066	0.245916	1521.944702
6487.525176	0.091139	0.245916	1607.706421
6487.526075	0.091040	0.245916	1689.551392
6487.526978	0.091040	0.245916	1771.760498
6487.527865	0.091051	0.245916	1852.522705
6487.528814	0.091165	0.245916	1939.037842
6487.529720	0.091124	0.245916	2021.596436
6488.559572	1.216425	0.248897	544.958191
6488.560468	0.719637	0.248897	1189.753418
6488.561389	0.094574	0.248897	1276.856079
6488.562319	0.091154	0.248897	1361.628906
6488.563231	0.091183	0.248897	1444.787720
6488.564128	0.091135	0.248897	1526.536011
6488.565060	0.091234	0.248897	1611.566162
6488.565964	0.091172	0.248897	1693.985596
6488.566859	0.091201	0.248897	1775.610596
6488.567744	0.091168	0.248897	1856.294434
6488.568682	0.091168	0.248897	1941.810181
6488.569583	0.091132	0.248897	2023.919800
6489.633733	1.200945	0.247664	522.410950
6489.634679	0.706604	0.247664	1190.858398
6489.635589	0.093406	0.247664	1275.857666
6489.636498	0.091044	0.247664	1358.616455
6489.637389	0.091194	0.247664	1439.870117
6489.638330	0.091190	0.247664	1525.680054
6489.639223	0.091157	0.247664	1607.083496
6489.640119	0.091062	0.247664	1688.675049
6489.641006	0.091099	0.247664	1769.479492
6489.641959	0.091146	0.247664	1856.341797
6489.642867	0.091113	0.247664	1939.072632
6489.643768	0.091252	0.247664	2021.291016
6490.674132	1.211144	0.250754	537.747864
6490.675100	0.616018	0.250754	1134.053345
6490.676011	0.092959	0.250754	1218.739014
6490.676902	0.091154	0.250754	1299.956787
6490.677811	0.091157	0.250754	1382.818726
6490.678728	0.091238	0.250754	1466.483765
6490.679638	0.091077	0.250754	1549.363525
6490.680536	0.091132	0.250754	1631.199707
6490.681468	0.091139	0.250754	1716.141113
6490.682370	0.091212	0.250754	1798.414429
6490.683274	0.091132	0.250754	1880.797363
6490.684164	0.091128	0.250754	1961.901245
6491.747830	1.229026	0.247970	593.619507
6491.748752	0.630557	0.247970	1174.992676
6491.749641	0.093124	0.247970	1257.779663
6491.750528	0.091058	0.247970	1338.548462
6491.751461	0.091179	0.247970	1423.618652
6491.752371	0.091088	0.247970	1506.508423
6491.753272	0.091069	0.247970	1588.561890
6491.754161	0.091205	0.247970	1669.642944
6491.755114	0.091256	0.247970	1756.609985
6491.756019	0.091066	0.247970	1839.024414
6491.756918	0.091055	0.247970	1920.882568
6491.757843	0.091132	0.247970	2005.179321
6492.788230	1.240430	0.250750	618.974365
6492.789157	0.596045	0.250750	1171.508057
6492.790054	0.092809	0.250750	1254.757568
6492.790939	0.090970	0.250750	1335.266479
6492.791877	0.091219	0.250750	1420.830322
6492.792798	0.091080	0.250750	1504.715332
6492.793701	0.091080	0.250750	1586.960815
6492.794587	0.091062	0.250750	1667.641724
6492.795545	0.091139	0.250750	1754.952759
6492.796449	0.091102	0.250750	1837.309204
6492.797339	0.091033	0.250750	1918.328369
6492.798279	0.091165	0.250750	2004.023071
6493.861903	1.249167	0.249010	633.327881
6493.862820	0.601575	0.249010	1184.971924
6493.863747	0.092322	0.249010	1270.554199
6493.864632	0.091066	0.249010	1351.147339
6493.865577	0.091128	0.249010	1437.263184
6493.866482	0.091091	0.249010	1519.700806
6493.867374	0.091139	0.249010	1600.996704
6493.868309	0.091095	0.249010	1686.170532
6493.869222	0.091036	0.249010	1769.286743
6493.870124	0.091143	0.249010	1851.497314
6493.871016	0.091157	0.249010	1932.809570
6493.871958	0.091135	0.249010	2018.658936
6494.902750	1.216036	0.252692	547.216370
6494.903649	0.706934	0.252692	1182.749634
6494.904534	0.094512	0.252692	1266.392456
6494.905480	0.091091	0.252692	1352.564819
6494.906385	0.091040	0.252692	1434.956055
6494.907302	0.091055	0.252692	1518.453247
6494.908186	0.091146	0.252692	1599.026489
6494.909116	0.091036	0.252692	1683.690308
6494.910021	0.091110	0.252692	1766.144531
6494.910909	0.091198	0.252692	1847.127930
6494.911841	0.091150	0.252692	1932.079590
6494.912746	0.091099	0.252692	2014.523804
6495.975911	1.236497	0.249747	567.551941
6495.976815	0.690220	0.249747	1191.510498
6495.977701	0.093959	0.249747	1274.757935
6495.978649	0.091165	0.249747	1361.181885
6495.979567	0.091077	0.249747	1444.790283
6495.980476	0.091165	0.249747	1527.658813
6495.981365	0.091036	0.249747	1608.590088
6495.982322	0.091088	0.249747	1695.760986
6495.983229	0.091205	0.249747	1778.483765
6495.984120	0.091146	0.249747	1859.695068
6495.985063	0.091106	0.249747	1945.608032
6495.985983	0.091033	0.249747	2029.358154
6497.016809	1.220647	0.253775	574.924744
6497.017716	0.660758	0.253775	1174.232300
6497.018646	0.093713	0.253775	1261.385742
6497.019563	0.091036	0.253775	1344.866089
6497.020481	0.091128	0.253775	1428.521484
6497.021373	0.091124	0.253775	1509.804321
6497.022321	0.091154	0.253775	1596.217896
6497.023213	0.091205	0.253775	1677.572632
6497.024124	0.091088	0.253775	1760.553467
6497.025022	0.091058	0.253775	1842.323853
6497.025962	0.091124	0.253775	1927.980713
6497.026876	0.091110	0.253775	2011.254883
6498.090492	1.222094	0.249416	591.493286
6498.091412	0.612059	0.249416	1154.587891
6498.092321	0.092860	0.249416	1238.997681
6498.093213	0.091113	0.249416	1320.270752
6498.094166	0.091201	0.249416	1407.185425
6498.095067	0.091117	0.249416	1489.281738
6498.095968	0.090985	0.249416	1571.259277
6498.096855	0.091084	0.249416	1652.050781
6498.097796	0.091201	0.249416	1737.871094
6498.098707	0.091176	0.249416	1820.932007
6498.099600	0.091198	0.249416	1902.371338
6498.100533	0.091179	0.249416	1987.441528
6499.131340	1.213220	0.258694	532.603699
6499.132248	0.721904	0.258694	1188.092773
6499.133132	0.094530	0.258694	1271.657349
6499.134080	0.091190	0.258694	1358.105591
6499.134990	0.091121	0.258694	1441.025391
6499.135892	0.091187	0.258694	1523.275635
6499.136778	0.091201	0.258694	1604.079834
6499.137726	0.091219	0.258694	1690.555908
6499.138636	0.091062	0.258694	1773.422363
6499.139529	0.091069	0.258694	1854.747314
6499.140462	0.091124	0.258694	1939.766235
6499.141370	0.091201	0.258694	2022.576904
6500.204495	1.209327	0.247044	530.894775
6500.205414	0.702433	0.247044	1176.430664
6500.206312	0.094193	0.247044	1261.016113
6500.207247	0.091179	0.247044	1346.268677
6500.208141	0.091132	0.247044	1427.740356
6500.209040	0.091150	0.247044	1509.684082
6500.209923	0.091117	0.247044	1590.140381
6500.210859	0.091150	0.247044	1675.456665
6500.211765	0.091091	0.247044	1757.985352
6500.212662	0.091154	0.247044	1839.750122
6500.213571	0.091110	0.247044	1922.568726
6500.214491	0.091172	0.247044	2006.446899
6501.246416	1.205427	0.260462	532.798828
6501.247362	0.645110	0.260462	1143.072754
6501.248273	0.093369	0.260462	1228.132080
6501.249169	0.091099	0.260462	1309.756470
6501.250084	0.091132	0.260462	1393.141846
6501.251008	0.091201	0.260462	1477.411743
6501.251918	0.091069	0.260462	1560.284790
6501.252812	0.091150	0.260462	1641.772827
6501.253750	0.091223	0.260462	1727.340088
6501.254651	0.091106	0.260462	1809.426514
6501.255548	0.091080	0.260462	1891.125610
6501.256432	0.091135	0.260462	1971.689209
6502.318038	1.223833	0.249888	550.724854
6502.318941	0.701492	0.249888	1184.171875
6502.319828	0.094310	0.249888	1267.825073
6502.320796	0.091256	0.249888	1356.161011
6502.321703	0.091128	0.249888	1438.814087
6502.322597	0.091176	0.249888	1520.325073
6502.323527	0.091179	0.249888	1605.121704
6502.324425	0.091157	0.249888	1686.980835
6502.325321	0.091099	0.249888	1768.605225
6502.326204	0.091095	0.249888	1849.042114
6502.327170	0.091256	0.249888	1937.195557
6502.328063	0.091102	0.249888	2018.549927
6503.361999	1.211997	0.264672	536.914673
6503.362895	0.725072	0.264672	1186.579224
6503.363860	0.093171	0.264672	1276.489624
6503.364767	0.091183	0.264672	1359.192505
6503.365657	0.091058	0.264672	1440.234375
6503.366577	0.091069	0.264672	1524.018188
6503.367491	0.091223	0.264672	1607.396118
6503.368402	0.091132	0.264672	1690.416992
6503.369300	0.090974	0.264672	1772.111816
6503.370228	0.091201	0.264672	1856.746460
6503.371133	0.091139	0.264672	1939.227173
6503.372035	0.091025	0.264672	2021.332031
6504.430556	1.222218	0.251378	543.887024
6504.431492	0.661003	0.251378	1162.586182
6504.432384	0.093560	0.251378	1246.041260
6504.433335	0.091135	0.251378	1332.710937
6504.434236	0.091238	0.251378	1414.916138
6504.435133	0.091198	0.251378	1496.720337
6504.436028	0.091154	0.251378	1578.302734
6504.436961	0.091183	0.251378	1663.376343
6504.437875	0.091161	0.251378	1746.697388
6504.438776	0.091260	0.251378	1828.922485
6504.439660	0.091179	0.251378	1909.524902
6504.440601	0.091124	0.251378	1995.272827
6505.479626	1.211594	0.261417	528.255066
6505.480593	0.619003	0.261417	1126.830688
6505.481511	0.092776	0.261417	1211.998901
6505.482405	0.091073	0.261417	1293.418213
6505.483332	0.091143	0.261417	1377.907349
6505.484244	0.091128	0.261417	1461.015991
6505.485148	0.091102	0.261417	1543.372437
6505.486034	0.091029	0.261417	1624.024170
6505.486975	0.091132	0.261417	1709.779053
6505.487877	0.091176	0.261417	1792.019409
6505.488770	0.091124	0.261417	1873.393433
6505.489677	0.091128	0.261417	1956.046509
6506.541536	1.231278	0.250649	560.231506
6506.542427	0.710845	0.250649	1193.594116
6506.543384	0.093420	0.250649	1282.997437
6506.544288	0.091187	0.250649	1365.430054
6506.545186	0.091128	0.250649	1447.262939
6506.546073	0.091055	0.250649	1528.028442
6506.547024	0.091234	0.250649	1614.792114
6506.547931	0.091113	0.250649	1697.431885
6506.548827	0.091157	0.250649	1779.108765
6506.549749	0.091176	0.250649	1863.172607
6506.550651	0.091176	0.250649	1945.412964
6506.551547	0.091135	0.250649	2027.070190
6507.596764	1.217637	0.263097	534.542542
6507.597687	0.705143	0.263097	1185.389404
6507.598594	0.093746	0.263097	1270.417358
6507.599524	0.090970	0.263097	1355.019897
6507.600443	0.091256	0.263097	1438.884277
6507.601349	0.091066	0.263097	1521.389771
6507.602245	0.091084	0.263097	1603.000977
6507.603184	0.091124	0.263097	1688.566650
6507.604083	0.091124	0.263097	1770.487305
6507.604982	0.091157	0.263097	1852.437622
6507.605869	0.091055	0.263097	1933.203125
6507.606799	0.091212	0.263097	2018.030396
6508.652488	1.210378	0.251809	528.935364
6508.653449	0.643282	0.251809	1147.129883
6508.654348	0.093208	0.251809	1230.923828
6508.655248	0.091095	0.251809	1312.909302
6508.656178	0.091135	0.251809	1397.665039
6508.657081	0.091194	0.251809	1480.013062
6508.657978	0.091055	0.251809	1561.689087
6508.658867	0.091135	0.251809	1642.708374
6508.659819	0.091252	0.251809	1729.580688
6508.660716	0.091172	0.251809	1811.361816
6508.661612	0.091121	0.251809	1893.005859
6508.662495	0.091154	0.251809	1973.494507
6509.713868	1.205365	0.265079	526.744507
6509.714770	0.729232	0.265079	1184.511963
6509.715658	0.094647	0.265079	1268.558716
6509.716612	0.091161	0.265079	1355.526245
6509.717518	0.091102	0.265079	1438.064941
6509.718414	0.091201	0.265079	1519.781250
6509.719339	0.091117	0.265079	1604.064453
6509.720247	0.091212	0.265079	1686.885132
6509.721156	0.091000	0.265079	1769.603882
6509.722046	0.091143	0.265079	1850.720825
6509.722981	0.091249	0.265079	1936.038452
6509.723882	0.091216	0.265079	2018.223877
6510.764004	1.231981	0.257360	564.247375
6510.764903	0.695500	0.257360	1189.502319
6510.765819	0.094175	0.257360	1275.766479
6510.766740	0.091208	0.257360	1359.769531
6510.767652	0.091029	0.257360	1442.788086
6510.768539	0.091121	0.257360	1523.612061
6510.769472	0.091208	0.257360	1608.709595
6510.770382	0.091176	0.257360	1691.679321
6510.771279	0.091088	0.257360	1773.384888
6510.772169	0.091183	0.257360	1854.537598
6510.773125	0.091146	0.257360	1941.673340
6510.774024	0.091073	0.257360	2023.547974
6511.831510	1.220270	0.263294	543.020081
6511.832446	0.690758	0.263294	1189.569580
6511.833354	0.093340	0.263294	1274.322144
6511.834267	0.090912	0.263294	1357.324707
6511.835158	0.091044	0.263294	1438.444702
6511.836105	0.091084	0.263294	1524.701172
6511.837011	0.091176	0.263294	1607.306152
6511.837910	0.091047	0.263294	1689.157715
6511.838796	0.091051	0.263294	1769.828979
6511.839741	0.091183	0.263294	1855.996826
6511.840651	0.091091	0.263294	1938.889893
6511.841545	0.091102	0.263294	2020.335327
6512.876038	1.285635	0.262263	641.531738
6512.876950	0.611550	0.262263	1199.265625
6512.877848	0.092904	0.262263	1282.693481
6512.878732	0.090978	0.262263	1363.117798
6512.879665	0.091256	0.262263	1448.259766
6512.880569	0.091179	0.262263	1530.685791
6512.881469	0.091080	0.262263	1612.658081
6512.882399	0.091150	0.262263	1697.427490
6512.883301	0.091223	0.262263	1779.710815
6512.884194	0.091084	0.262263	1861.048828
6512.885084	0.091183	0.262263	1942.201538
6512.886018	0.091212	0.262263	2027.393677
6513.947607	1.214103	0.262565	541.489807
6513.948499	0.727222	0.262565	1190.171509
6513.949459	0.093384	0.262565	1279.819946
6513.950355	0.091066	0.262565	1361.414795
6513.951245	0.091051	0.262565	1442.450195
6513.952159	0.091179	0.262565	1525.787964
6513.953084	0.091263	0.262565	1610.206665
6513.953989	0.091099	0.262565	1692.650879
6513.954883	0.091047	0.262565	1774.047241
6513.955819	0.091143	0.262565	1859.356689
6513.956720	0.091143	0.262565	1941.476196
6513.957621	0.091036	0.262565	2023.500000
6514.987981	1.200586	0.267169	524.656067
6514.988940	0.678486	0.267169	1175.324463
6514.989839	0.093168	0.267169	1259.082275
6514.990742	0.091025	0.267169	1341.278198
6514.991631	0.091154	0.267169	1422.313721
6514.992566	0.091194	0.267169	1507.579956
6514.993468	0.091143	0.267169	1589.790527
6514.994373	0.091190	0.267169	1672.317627
6514.995258	0.090985	0.267169	1752.839478
6514.996195	0.091135	0.267169	1838.233154
6514.997100	0.091198	0.267169	1920.766846
6514.997988	0.091132	0.267169	2001.691650
6516.063190	1.220175	0.265054	545.418030
6516.064096	0.705513	0.265054	1184.612549
6516.064986	0.094244	0.265054	1268.489990
6516.065938	0.091146	0.265054	1355.261230
6516.066853	0.091135	0.265054	1438.650024
6516.067747	0.091187	0.265054	1520.170776
6516.068658	0.091007	0.265054	1603.078247
6516.069569	0.091165	0.265054	1686.129150
6516.070465	0.091062	0.265054	1767.720703
6516.071363	0.091121	0.265054	1849.546997
6516.072293	0.091190	0.265054	1934.353882
6516.073197	0.091091	0.265054	2016.700439
6517.101048	1.227154	0.268507	589.034180
6517.101942	0.656843	0.268507	1176.251953
6517.102871	0.093497	0.268507	1263.110962
6517.103776	0.091036	0.268507	1345.498901
6517.104701	0.091044	0.268507	1429.714355
6517.105589	0.091157	0.268507	1510.661987
6517.106550	0.091084	0.268507	1598.193726
6517.107465	0.091139	0.268507	1681.585815
6517.108383	0.091077	0.268507	1765.194214
6517.109272	0.091080	0.268507	1846.164673
6517.110225	0.091073	0.268507	1932.957275
6517.111122	0.091077	0.268507	2014.653076
6518.178260	1.222302	0.262275	548.813721
6518.179162	0.708984	0.262275	1188.317627
6518.180125	0.093322	0.262275	1278.186279
6518.181041	0.091080	0.262275	1361.615845
6518.181960	0.091113	0.262275	1445.348999
6518.182849	0.091051	0.262275	1526.293335
6518.183796	0.091051	0.262275	1612.518677
6518.184714	0.091128	0.262275	1696.174072
6518.185604	0.091230	0.262275	1777.369141
6518.186527	0.091110	0.262275	1861.463379
6518.187447	0.091088	0.262275	1945.264038
6518.188365	0.091187	0.262275	2028.973267
6519.214544	1.203794	0.268805	529.669312
6519.215507	0.620328	0.268805	1127.045532
6519.216406	0.092996	0.268805	1210.648560
6519.217305	0.091069	0.268805	1292.519897
6519.218190	0.091073	0.268805	1373.119507
6519.219141	0.091117	0.268805	1459.771729
6519.220044	0.091150	0.268805	1542.080078
6519.220942	0.091080	0.268805	1623.870239
6519.221867	0.091113	0.268805	1708.150024
6519.222772	0.091198	0.268805	1790.683838
6519.223670	0.091117	0.268805	1872.506836
6519.224556	0.091176	0.268805	1953.288330
6520.293340	1.226635	0.266561	550.758911
6520.294241	0.701404	0.266561	1182.723755
6520.295186	0.093801	0.266561	1271.365967
6520.296091	0.091106	0.266561	1353.816895
6520.296984	0.091102	0.266561	1435.171265
6520.297873	0.091132	0.266561	1516.187256
6520.298802	0.091205	0.266561	1600.916504
6520.299699	0.091102	0.266561	1682.635254
6520.300596	0.091117	0.266561	1764.367187
6520.301504	0.091128	0.266561	1847.111328
6520.302430	0.091157	0.266561	1931.522949
6520.303336	0.091003	0.266561	2013.972046
6521.329105	1.213960	0.269836	532.928467
6521.330028	0.695332	0.269836	1174.719971
6521.330927	0.093940	0.269836	1259.172363
6521.331866	0.091168	0.269836	1344.779297
6521.332774	0.091069	0.269836	1427.470215
6521.333673	0.091117	0.269836	1509.384399
6521.334561	0.091051	0.269836	1590.237671
6521.335506	0.091183	0.269836	1676.405518
6521.336409	0.091011	0.269836	1758.588257
6521.337301	0.091128	0.269836	1839.874390
6521.338225	0.091073	0.269836	1924.025879
6521.339128	0.091139	0.269836	2006.324341
6522.407366	1.198103	0.260527	518.778564
6522.408313	0.670631	0.260527	1153.866211
6522.409215	0.093541	0.260527	1238.240479
6522.410107	0.091102	0.260527	1319.503662
6522.410993	0.091183	0.260527	1400.291626
6522.411946	0.091212	0.260527	1487.216797
6522.412842	0.091194	0.260527	1568.926514
6522.413740	0.091187	0.260527	1650.812012
6522.414645	0.091183	0.260527	1733.332520
6522.415573	0.091216	0.260527	1817.980835
6522.416481	0.091014	0.260527	1900.621948
6522.417375	0.091058	0.260527	1982.028076
6523.443652	1.196470	0.272789	518.071350
6523.444588	0.715898	0.272789	1188.152344
6523.445502	0.093464	0.272789	1273.578735
6523.446415	0.091073	0.272789	1356.728394
6523.447302	0.091157	0.272789	1437.584839
6523.448236	0.091219	0.272789	1522.783813
6523.449143	0.091190	0.272789	1605.493286
6523.450048	0.091208	0.272789	1688.036987
6523.450934	0.091124	0.272789	1768.773071
6523.451887	0.091198	0.272789	1855.684326
6523.452794	0.091102	0.272789	1938.314087
6523.453683	0.091179	0.272789	2019.372437
6524.521477	1.279709	0.265280	642.414124
6524.522402	0.581279	0.265280	1180.097412
6524.523298	0.092736	0.265280	1263.188477
6524.524184	0.091143	0.265280	1343.940796
6524.525122	0.091238	0.265280	1429.521851
6524.526028	0.091198	0.265280	1512.146851
6524.526930	0.091073	0.265280	1594.294678
6524.527854	0.091194	0.265280	1678.557739
6524.528761	0.091267	0.265280	1761.337036
6524.529670	0.091146	0.265280	1844.188965
6524.530562	0.091117	0.265280	1925.465332
6524.531497	0.091110	0.265280	2010.652832
6525.558234	1.223379	0.270448	546.850342
6525.559159	0.677915	0.270448	1173.921753
6525.560068	0.093534	0.270448	1258.944092
6525.560964	0.091121	0.270448	1340.588135
6525.561901	0.091190	0.270448	1426.033325
6525.562802	0.091106	0.270448	1508.119751
6525.563692	0.091095	0.270448	1589.194336
6525.564628	0.091132	0.270448	1674.493530
6525.565526	0.091157	0.270448	1756.352661
6525.566427	0.091073	0.270448	1838.409424
6525.567319	0.091143	0.270448	1919.708618
6525.568255	0.091208	0.270448	2005.079834
6526.634439	1.208309	0.267524	526.822876
6526.635417	0.623877	0.267524	1136.974487
6526.636310	0.092985	0.267524	1220.009766
6526.637199	0.091084	0.267524	1300.983398
6526.638127	0.091205	0.267524	1385.621460
6526.639037	0.091025	0.267524	1468.454590
6526.639948	0.091139	0.267524	1551.482178
6526.640836	0.091146	0.267524	1632.420044
6526.641797	0.091172	0.267524	1720.036255
6526.642701	0.091135	0.267524	1802.422485
6526.643596	0.091154	0.267524	1884.004883
6526.644481	0.091154	0.267524	1964.675781
6527.673799	1.206790	0.269747	530.987427
6527.674771	0.620977	0.269747	1134.576660
6527.675679	0.092754	0.269747	1218.797241
6527.676577	0.091018	0.269747	1300.531494
6527.677507	0.091176	0.269747	1385.324707
6527.678425	0.091183	0.269747	1469.030518
6527.679327	0.090978	0.269747	1551.092529
6527.680218	0.091187	0.269747	1632.339722
6527.681157	0.091205	0.269747	1717.981079
6527.682056	0.091135	0.269747	1799.911621
6527.682956	0.091135	0.269747	1881.933350
6527.683841	0.091091	0.269747	1962.549194
6528.747530	1.235142	0.272821	621.276245
6528.748447	0.585359	0.272821	1158.050293
6528.749353	0.092457	0.272821	1241.816528
6528.750239	0.091073	0.272821	1322.507202
6528.751164	0.091194	0.272821	1406.861572
6528.752070	0.091106	0.272821	1489.403564
6528.752979	0.091143	0.272821	1572.252197
6528.753865	0.091146	0.272821	1653.007812
6528.754801	0.091161	0.272821	1738.334351
6528.755710	0.091077	0.272821	1821.123047
6528.756599	0.091157	0.272821	1902.161865
6528.757524	0.091179	0.272821	1986.502686
6529.789903	1.211459	0.266384	533.041870
6529.790870	0.642766	0.266384	1154.596680
6529.791784	0.092534	0.266384	1239.172974
6529.792690	0.091113	0.266384	1321.721558
6529.793578	0.091040	0.266384	1402.565063
6529.794526	0.091154	0.266384	1488.978638
6529.795427	0.091165	0.266384	1571.117920
6529.796326	0.091227	0.266384	1653.130859
6529.797238	0.091135	0.266384	1736.246216
6529.798167	0.091172	0.266384	1820.944824
6529.799073	0.091080	0.266384	1903.463623
6529.799959	0.091055	0.266384	1984.138062
6530.859464	1.202501	0.274835	524.290527
6530.860360	0.720480	0.274835	1169.840332
6530.861311	0.093354	0.274835	1258.620483
6530.862219	0.091066	0.274835	1341.308105
6530.863113	0.091146	0.274835	1422.792847
6530.864036	0.091198	0.274835	1506.968140
6530.864940	0.091157	0.274835	1589.374268
6530.865835	0.091095	0.274835	1670.904297
6530.866722	0.091113	0.274835	1751.721802
6530.867662	0.091146	0.274835	1837.399292
6530.868561	0.091135	0.274835	1919.329834
6530.869462	0.091113	0.274835	2001.422852
6531.906504	1.202824	0.268132	523.228210
6531.907494	0.599257	0.268132	1116.492187
6531.908396	0.092714	0.268132	1200.119873
6531.909295	0.091106	0.268132	1282.024170
6531.910184	0.091080	0.268132	1362.994629
6531.911133	0.091230	0.268132	1449.572388
6531.912038	0.091055	0.268132	1531.976929
6531.912933	0.091165	0.268132	1613.569214
6531.913859	0.091110	0.268132	1697.936768
6531.914764	0.091198	0.268132	1780.470459
6531.915661	0.091080	0.268132	1862.169556
6531.916547	0.091102	0.268132	1942.886230
6532.971496	1.256649	0.275572	589.368469
6532.972412	0.648640	0.275572	1183.522827
6532.973302	0.093494	0.275572	1266.732178
6532.974257	0.091176	0.275572	1353.804810
6532.975153	0.091095	0.275572	1435.425903
6532.976042	0.091157	0.275572	1516.464722
6532.976955	0.091183	0.275572	1599.714722
6532.977860	0.091183	0.275572	1682.235229
6532.978763	0.091201	0.275572	1764.589844
6532.979661	0.091165	0.275572	1846.455566
6532.980599	0.091165	0.275572	1931.967896
6532.981501	0.091135	0.275572	2014.171875
6534.024670	1.232823	0.269465	559.701843
6534.025571	0.698712	0.269465	1189.241455
6534.026463	0.094175	0.269465	1273.245361
6534.027411	0.091121	0.269465	1359.627686
6534.028307	0.091150	0.269465	1441.297974
6534.029211	0.091000	0.269465	1523.561768
6534.030102	0.091003	0.269465	1604.645752
6534.031033	0.091077	0.269465	1689.438110
6534.031935	0.091051	0.269465	1771.566162
6534.032833	0.091179	0.269465	1853.445068
6534.033754	0.091172	0.269465	1937.414307
6534.034651	0.091121	0.269465	2019.149536
6535.082953	1.196041	0.282739	519.081909
6535.083917	0.697562	0.282739	1191.531982
6535.084819	0.092878	0.282739	1275.308350
6535.085722	0.091179	0.282739	1357.643188
6535.086613	0.091095	0.282739	1438.808838
6535.087541	0.091157	0.282739	1523.402710
6535.088457	0.091124	0.282739	1606.872559
6535.089354	0.090989	0.282739	1688.489502
6535.090242	0.091003	0.282739	1769.300537
6535.091192	0.091121	0.282739	1855.865112
6535.092085	0.091113	0.282739	1937.229248
6535.092971	0.091132	0.282739	2017.971802
6536.141804	1.254544	0.269590	594.653625
6536.142720	0.647791	0.269590	1188.029785
6536.143604	0.093519	0.269590	1270.700806
6536.144562	0.091128	0.269590	1358.001343
6536.145456	0.091062	0.269590	1439.410767
6536.146345	0.091080	0.269590	1520.381226
6536.147291	0.091157	0.269590	1606.615967
6536.148203	0.091113	0.269590	1689.711304
6536.149101	0.091143	0.269590	1771.557373
6536.149991	0.091143	0.269590	1852.674316
6536.150937	0.091216	0.269590	1938.964478
6536.151846	0.091099	0.269590	2021.773193
6537.194508	1.291765	0.285120	649.757812
6537.195421	0.600421	0.285120	1197.942383
6537.196342	0.092476	0.285120	1283.112427
6537.197228	0.091165	0.285120	1363.884277
6537.198185	0.091058	0.285120	1451.027100
6537.199081	0.091069	0.285120	1532.625244
6537.199969	0.091051	0.285120	1613.478516
6537.200892	0.091179	0.285120	1697.636963
6537.201793	0.091139	0.285120	1779.753174
6537.202705	0.091102	0.285120	1862.838501
6537.203601	0.091095	0.285120	1944.459595
6537.204562	0.091029	0.285120	2031.938477
6538.258898	1.208709	0.270283	528.205627
6538.259854	0.690359	0.270283	1188.188721
6538.260770	0.093054	0.270283	1273.426392
6538.261656	0.091080	0.270283	1354.123535
6538.262547	0.091154	0.270283	1435.341309
6538.263480	0.091190	0.270283	1520.421753
6538.264382	0.091194	0.270283	1602.678589
6538.265286	0.091132	0.270283	1685.061523
6538.266172	0.091135	0.270283	1765.807373
6538.267105	0.091190	0.270283	1850.887817
6538.268015	0.091135	0.270283	1933.820923
6538.268904	0.091139	0.270283	2014.843384
6539.305929	1.201172	0.282364	526.113281
6539.306899	0.614242	0.282364	1121.927979
6539.307811	0.092809	0.282364	1206.569580
6539.308714	0.091095	0.282364	1288.828369
6539.309633	0.091113	0.282364	1372.561523
6539.310553	0.091165	0.282364	1456.432861
6539.311454	0.091088	0.282364	1538.502808
6539.312343	0.091143	0.282364	1619.528564
6539.313272	0.091128	0.282364	1704.186401
6539.314182	0.091161	0.282364	1787.142822
6539.315083	0.091066	0.282364	1869.192993
6539.315967	0.091069	0.282364	1949.698242
6540.374481	1.210364	0.268849	538.611877
6540.375382	0.716312	0.268849	1184.009277
6540.376320	0.094468	0.268849	1272.619995
6540.377221	0.091117	0.268849	1354.716309
6540.378108	0.091091	0.268849	1435.514282
6540.378999	0.091084	0.268849	1516.670166
6540.379937	0.091249	0.268849	1602.261475
6540.380847	0.091227	0.268849	1685.277832
6540.381751	0.091172	0.268849	1767.697266
6540.382639	0.091117	0.268849	1848.609131
6540.383592	0.091157	0.268849	1935.481934
6540.384499	0.091117	0.268849	2018.125000
6541.418953	1.198542	0.285692	523.763062
6541.419929	0.611818	0.285692	1120.896973
6541.420834	0.092816	0.285692	1204.895630
6541.421736	0.091128	0.285692	1287.093018
6541.422622	0.091201	0.285692	1367.897217
6541.423563	0.091179	0.285692	1453.696899
6541.424470	0.091154	0.285692	1536.373169
6541.425360	0.091117	0.285692	1617.467285
6541.426292	0.091113	0.285692	1702.384888
6541.427199	0.091113	0.285692	1785.024658
6541.428105	0.091128	0.285692	1867.586548
6541.428994	0.091124	0.285692	1948.596069
6542.490075	1.219596	0.277764	545.159363
6542.490999	0.669840	0.277764	1164.091553
6542.491900	0.093508	0.277764	1248.342529
6542.492824	0.091088	0.277764	1332.507568
6542.493732	0.091219	0.277764	1415.334839
6542.494631	0.091157	0.277764	1497.285156
6542.495517	0.091121	0.277764	1578.018066
6542.496472	0.091201	0.277764	1665.115234
6542.497373	0.091157	0.277764	1747.247925
6542.498267	0.091102	0.277764	1828.693359
6542.499155	0.091154	0.277764	1909.637695
6542.500102	0.091198	0.277764	1996.001709
6543.533539	1.226858	0.284088	554.539795
6543.534465	0.677604	0.284088	1182.000977
6543.535357	0.093607	0.284088	1265.498535
6543.536252	0.091084	0.284088	1347.018677
6543.537188	0.091252	0.284088	1432.430908
6543.538093	0.091124	0.284088	1514.898315
6543.538983	0.091157	0.284088	1596.028198
6543.539909	0.091161	0.284088	1680.443115
6543.540812	0.091128	0.284088	1762.731689
6543.541706	0.091051	0.284088	1844.131348
6543.542595	0.091099	0.284088	1925.118042
6543.543538	0.091168	0.284088	2011.089600
6544.604112	1.213711	0.274448	536.460205
6544.605021	0.710658	0.274448	1182.448242
6544.605909	0.094486	0.274448	1266.351929
6544.606859	0.091062	0.274448	1352.860840
6544.607763	0.091033	0.274448	1435.154419
6544.608654	0.091143	0.274448	1516.362427
6544.609573	0.091095	0.274448	1600.078735
6544.610479	0.091176	0.274448	1682.683838
6544.611378	0.091179	0.274448	1764.653931
6544.612264	0.091146	0.274448	1845.409546
6544.613187	0.091198	0.274448	1929.584839
6544.614104	0.091146	0.274448	2013.165894
6545.648078	1.209635	0.288169	534.658691
6545.648971	0.735729	0.288169	1191.664429
6545.649927	0.093530	0.288169	1281.079346
6545.650832	0.091128	0.288169	1363.550171
6545.651727	0.091099	0.288169	1445.083496
6545.652613	0.091095	0.288169	1525.793701
6545.653553	0.091219	0.288169	1611.540039
6545.654455	0.091007	0.288169	1693.628418
6545.655347	0.091143	0.288169	1774.927612
6545.656284	0.091106	0.288169	1860.293945
6545.657196	0.091168	0.288169	1943.439331
6545.658097	0.091135	0.288169	2025.552246
6546.718665	1.207800	0.278400	530.224304
6546.719616	0.664087	0.278400	1161.770996
6546.720524	0.093153	0.278400	1246.354004
6546.721421	0.091128	0.278400	1328.095703
6546.722307	0.091029	0.278400	1408.747437
6546.723234	0.091168	0.278400	1493.260376
6546.724150	0.091066	0.278400	1576.676514
6546.725053	0.091033	0.278400	1658.879028
6546.725943	0.091051	0.278400	1739.914429
6546.726886	0.091146	0.278400	1825.865356
6546.727788	0.091069	0.278400	1908.009888
6546.728677	0.091128	0.278400	1989.022583
6547.762122	1.200308	0.287202	524.534424
6547.763094	0.613103	0.287202	1120.470581
6547.764007	0.092845	0.287202	1205.238525
6547.764902	0.091172	0.287202	1286.837402
6547.765790	0.091091	0.287202	1367.726440
6547.766726	0.091102	0.287202	1452.998169
6547.767634	0.091165	0.287202	1535.775635
6547.768526	0.091077	0.287202	1617.015991
6547.769465	0.091150	0.287202	1702.605713
6547.770375	0.091036	0.287202	1785.448853
6547.771275	0.090912	0.287202	1867.269531
6547.772164	0.091168	0.287202	1948.318115
6548.833254	1.246044	0.283432	571.934021
6548.834164	0.670818	0.283432	1182.378296
6548.835055	0.093622	0.283432	1265.795288
6548.835994	0.091124	0.283432	1351.360962
6548.836907	0.091095	0.283432	1434.530640
6548.837808	0.091040	0.283432	1516.557739
6548.838695	0.091121	0.283432	1597.381714
6548.839648	0.091132	0.283432	1684.230103
6548.840557	0.091040	0.283432	1766.985474
6548.841454	0.090978	0.283432	1848.592529
6548.842340	0.091168	0.283432	1929.367554
6548.843288	0.091154	0.283432	2015.781128
6549.877217	1.222174	0.285917	554.867004
6549.878118	0.695361	0.285917	1181.387573
6549.879033	0.094142	0.285917	1267.527344
6549.879963	0.091077	0.285917	1352.228638
6549.880858	0.091102	0.285917	1433.765137
6549.881744	0.091198	0.285917	1514.566162
6549.882684	0.091190	0.285917	1600.284912
6549.883604	0.091135	0.285917	1684.129395
6549.884507	0.091245	0.285917	1766.523682
6549.885396	0.091128	0.285917	1847.536377
6549.886337	0.091212	0.285917	1933.367065
6549.887248	0.091132	0.285917	2016.387939
6550.946791	1.233600	0.287222	566.222290
6550.947692	0.694215	0.287222	1191.710083
6550.948580	0.093984	0.287222	1275.168213
6550.949511	0.091102	0.287222	1359.984497
6550.950418	0.091106	0.287222	1442.617554
6550.951337	0.090974	0.287222	1526.222778
6550.952232	0.090989	0.287222	1607.657715
6550.953166	0.091161	0.287222	1692.802002
6550.954075	0.091154	0.287222	1775.660645
6550.954992	0.091161	0.287222	1859.255127
6550.955881	0.091179	0.287222	1940.313477
6550.956835	0.091110	0.287222	2027.232056
6551.991244	1.205790	0.287855	530.547485
6551.992203	0.646000	0.287855	1150.061279
6551.993103	0.093215	0.287855	1233.955078
6551.994005	0.091088	0.287855	1316.116089
6551.994889	0.091051	0.287855	1396.605225
6551.995839	0.091201	0.287855	1483.246338
6551.996748	0.091069	0.287855	1566.028320
6551.997647	0.091150	0.287855	1647.972046
6551.998579	0.091106	0.287855	1732.882812
6551.999489	0.091154	0.287855	1815.832520
6552.000392	0.091014	0.287855	1898.018555
6552.001277	0.091135	0.287855	1978.673218
6553.060809	1.199271	0.276173	521.682983
6553.061758	0.695504	0.276173	1181.716431
6553.062660	0.093391	0.276173	1265.955200
6553.063556	0.091095	0.276173	1347.576294
6553.064446	0.091143	0.276173	1428.693237
6553.065383	0.091208	0.276173	1514.155640
6553.066290	0.091154	0.276173	1596.831909
6553.067189	0.091066	0.276173	1678.699951
6553.068078	0.091091	0.276173	1759.680176
6553.069033	0.091128	0.276173	1846.707397
6553.069943	0.091080	0.276173	1929.590454
6553.070832	0.091077	0.276173	2010.557617
6554.105326	1.246582	0.291400	578.414062
6554.106247	0.651053	0.291400	1178.034302
6554.107144	0.093398	0.291400	1261.812744
6554.108029	0.091080	0.291400	1342.418823
6554.108970	0.091201	0.291400	1428.239136
6554.109876	0.091132	0.291400	1510.804321
6554.110773	0.091143	0.291400	1592.559204
6554.111710	0.091165	0.291400	1677.980347
6554.112619	0.091183	0.291400	1760.865601
6554.113518	0.091143	0.291400	1842.802734
6554.114403	0.091176	0.291400	1923.493042
6554.115348	0.091128	0.291400	2009.608887
6555.176401	1.216589	0.284020	542.598816
6555.177304	0.709944	0.284020	1183.678101
6555.178240	0.094310	0.284020	1271.952515
6555.179144	0.091146	0.284020	1354.348755
6555.180042	0.091095	0.284020	1436.152100
6555.180929	0.091154	0.284020	1517.005371
6555.181865	0.091099	0.284020	1602.273682
6555.182759	0.091205	0.284020	1683.810791
6555.183656	0.091044	0.284020	1765.477051
6555.184546	0.091073	0.284020	1846.531982
6555.185501	0.091212	0.284020	1933.639648
6555.186405	0.091139	0.284020	2016.029175
6556.219343	1.210898	0.293104	535.217102
6556.220252	0.719509	0.293104	1189.250977
6556.221136	0.094559	0.293104	1272.841431
6556.222089	0.091128	0.293104	1359.686401
6556.222994	0.091077	0.293104	1442.110840
6556.223888	0.091025	0.293104	1523.487549
6556.224815	0.091212	0.293104	1608.041260
6556.225721	0.091135	0.293104	1690.609741
6556.226620	0.091135	0.293104	1772.540283
6556.227507	0.091058	0.293104	1853.309082
6556.228456	0.091146	0.293104	1939.806885
6556.229361	0.091088	0.293104	2022.241211
6557.290434	1.200029	0.283754	522.012695
6557.291389	0.677849	0.283754	1169.358643
6557.292292	0.093197	0.283754	1253.515503
6557.293195	0.090989	0.283754	1335.678345
6557.294084	0.091121	0.283754	1416.684570
6557.295028	0.091146	0.283754	1502.726562
6557.295918	0.091146	0.283754	1583.846680
6557.296818	0.091077	0.283754	1665.815674
6557.297704	0.091135	0.283754	1746.561523
6557.298643	0.091146	0.283754	1832.147827
6557.299559	0.091168	0.283754	1915.657959
6557.300452	0.091073	0.283754	1996.986084
6558.333905	1.208082	0.299025	535.180420
6558.334796	0.738534	0.299025	1193.214111
6558.335742	0.093420	0.299025	1281.589844
6558.336640	0.091168	0.299025	1363.458862
6558.337528	0.091143	0.299025	1444.393433
6558.338476	0.091245	0.299025	1530.893799
6558.339378	0.091128	0.299025	1613.091187
6558.340284	0.091139	0.299025	1695.663086
6558.341173	0.091146	0.299025	1776.692139
6558.342106	0.091278	0.299025	1861.854614
6558.343011	0.091036	0.299025	1944.242554
6558.343898	0.091033	0.299025	2024.988525
6559.404485	1.201278	0.284596	522.555969
6559.405427	0.674648	0.284596	1158.074829
6559.406354	0.093219	0.284596	1244.488892
6559.407275	0.091143	0.284596	1328.431152
6559.408164	0.091102	0.284596	1409.421143
6559.409105	0.091161	0.284596	1495.203491
6559.409998	0.091106	0.284596	1576.561157
6559.410888	0.091095	0.284596	1657.635742
6559.411790	0.091176	0.284596	1739.876099
6559.412720	0.091088	0.284596	1824.587646
6559.413624	0.091128	0.284596	1906.967285
6559.414510	0.091066	0.284596	1987.651489
6560.448978	1.217919	0.297821	540.755920
6560.449891	0.701689	0.297821	1181.398437
6560.450788	0.094402	0.297821	1266.076904
6560.451733	0.091190	0.297821	1352.251587
6560.452640	0.091029	0.297821	1434.814941
6560.453528	0.091113	0.297821	1515.723511
6560.454456	0.091187	0.297821	1600.344604
6560.455364	0.091154	0.297821	1683.112061
6560.456264	0.091128	0.297821	1765.127197
6560.457156	0.091025	0.297821	1846.321899
6560.458106	0.091212	0.297821	1932.973389
6560.459005	0.091143	0.297821	2014.910522
6561.518043	1.224851	0.285027	545.058716
6561.518965	0.673667	0.285027	1166.179687
6561.519862	0.093567	0.285027	1250.109131
6561.520785	0.091165	0.285027	1334.254028
6561.521707	0.091172	0.285027	1418.314453
6561.522618	0.091084	0.285027	1501.291992
6561.523517	0.091190	0.285027	1583.271973
6561.524457	0.091194	0.285027	1668.994141
6561.525358	0.091154	0.285027	1751.123535
6561.526255	0.091187	0.285027	1832.917847
6561.527139	0.091124	0.285027	1913.471680
6561.528074	0.091274	0.285027	1998.813232
6562.564571	1.222394	0.299396	541.520508
6562.565505	0.665885	0.299396	1163.457031
6562.566403	0.093387	0.299396	1247.318970
6562.567320	0.091113	0.299396	1330.869873
6562.568245	0.091300	0.299396	1415.322388
6562.569152	0.091187	0.299396	1498.028564
6562.570056	0.091256	0.299396	1580.524048
6562.570996	0.091227	0.299396	1666.277222
6562.571897	0.091168	0.299396	1748.419800
6562.572794	0.091249	0.299396	1830.270020
6562.573679	0.091201	0.299396	1910.983032
6562.574612	0.091241	0.299396	1996.111328
6563.630576	1.218420	0.284149	582.404968
6563.631509	0.617519	0.284149	1158.550659
6563.632420	0.092985	0.284149	1243.259644
6563.633309	0.091146	0.284149	1324.288696
6563.634250	0.091208	0.284149	1410.115845
6563.635161	0.091187	0.284149	1493.186768
6563.636061	0.091084	0.284149	1575.162354
6563.636949	0.091117	0.284149	1656.074219
6563.637896	0.091241	0.284149	1742.479858
6563.638796	0.091066	0.284149	1824.438965
6563.639695	0.091106	0.284149	1906.343262
6563.640616	0.091205	0.284149	1990.342896
6564.680141	1.206182	0.296568	529.513733
6564.681106	0.618992	0.296568	1126.840698
6564.682012	0.093018	0.296568	1211.114624
6564.682906	0.091117	0.296568	1292.573120
6564.683838	0.091165	0.296568	1377.538452
6564.684744	0.091150	0.296568	1460.120239
6564.685653	0.091176	0.296568	1542.998779
6564.686550	0.091066	0.296568	1624.684692
6564.687485	0.091128	0.296568	1709.889282
6564.688388	0.091135	0.296568	1792.184448
6564.689292	0.091132	0.296568	1874.567383
6564.690181	0.091135	0.296568	1955.586670
6565.743566	1.222939	0.288133	541.762207
6565.744534	0.616882	0.288133	1138.904297
6565.745443	0.092977	0.288133	1223.420654
6565.746332	0.091135	0.288133	1304.439941
6565.747267	0.091227	0.288133	1389.737061
6565.748176	0.091088	0.288133	1472.535767
6565.749076	0.091168	0.288133	1554.587158
6565.749967	0.091124	0.288133	1635.778931
6565.750929	0.091161	0.288133	1723.475708
6565.751839	0.091007	0.288133	1806.292114
6565.752736	0.091135	0.288133	1888.040405
6565.753641	0.091117	0.288133	1970.501221
6566.797783	1.217358	0.301418	536.855103
6566.798716	0.669012	0.301418	1161.043701
6566.799616	0.093523	0.301418	1245.214355
6566.800546	0.091190	0.301418	1330.021240
6566.801451	0.091183	0.301418	1412.541748
6566.802358	0.091066	0.301418	1495.138306
6566.803247	0.091121	0.301418	1576.144531
6566.804190	0.091146	0.301418	1662.095459
6566.805094	0.091117	0.301418	1744.465210
6566.805983	0.091091	0.301418	1825.445435
6566.806891	0.091014	0.301418	1908.086548
6566.807803	0.091187	0.301418	1991.248657
6567.855571	1.207917	0.288822	535.107422
6567.856465	0.728763	0.288822	1186.621948
6567.857397	0.093596	0.288822	1273.853638
6567.858304	0.091033	0.288822	1356.420288
6567.859201	0.091095	0.288822	1438.132446
6567.860116	0.091150	0.288822	1521.534668
6567.861032	0.091227	0.288822	1605.098389
6567.861944	0.091003	0.288822	1688.093506
6567.862841	0.091168	0.288822	1769.871338
6567.863780	0.091168	0.288822	1855.478271
6567.864676	0.091208	0.288822	1937.201050
6567.865579	0.091102	0.288822	2019.466431
6568.913923	1.245751	0.300057	620.383911
6568.914860	0.569271	0.300057	1153.791016
6568.915765	0.092355	0.300057	1237.372070
6568.916654	0.091168	0.300057	1318.420654
6568.917595	0.091216	0.300057	1404.254761
6568.918502	0.090959	0.300057	1486.755005
6568.919400	0.091132	0.300057	1568.591187
6568.920287	0.091187	0.300057	1649.473633
6568.921227	0.091241	0.300057	1735.240601
6568.922123	0.091212	0.300057	1816.966675
6568.923007	0.091208	0.300057	1897.594971
6568.923927	0.091208	0.300057	1981.506836
6569.966543	1.200883	0.291094	521.183044
6569.967475	0.715935	0.291094	1188.434570
6569.968406	0.093237	0.291094	1275.238525
6569.969311	0.091110	0.291094	1357.692749
6569.970197	0.091150	0.291094	1438.451538
6569.971128	0.091095	0.291094	1523.260986
6569.972035	0.091113	0.291094	1605.900757
6569.972950	0.091187	0.291094	1689.336426
6569.973835	0.091029	0.291094	1769.897095
6569.974786	0.091139	0.291094	1856.570190
6569.975679	0.091124	0.291094	1937.944214
6569.976565	0.091176	0.291094	2018.725708
6571.031551	1.275070	0.299787	622.233948
6571.032452	0.640312	0.299787	1199.155518
6571.033408	0.093256	0.299787	1288.307861
6571.034307	0.091128	0.299787	1370.231934
6571.035204	0.091029	0.299787	1451.885010
6571.036092	0.091113	0.299787	1532.793579
6571.037031	0.091201	0.299787	1618.431519
6571.037930	0.091099	0.299787	1700.329224
6571.038834	0.091176	0.299787	1782.751953
6571.039737	0.091135	0.299787	1865.047119
6571.040657	0.091179	0.299787	1948.932007
6571.041563	0.091099	0.299787	2031.467407
6572.079043	1.196393	0.295460	516.841675
6572.080007	0.655181	0.295460	1148.435791
6572.080915	0.093051	0.295460	1232.925659
6572.081814	0.091106	0.295460	1314.829956
6572.082697	0.091168	0.295460	1395.331543
6572.083627	0.091198	0.295460	1480.145264
6572.084541	0.091121	0.295460	1563.429443
6572.085439	0.091088	0.295460	1645.226196
6572.086342	0.091154	0.295460	1727.537842
6572.087275	0.091190	0.295460	1812.618286
6572.088178	0.091088	0.295460	1894.870483
6572.089068	0.091051	0.295460	1975.905884
6573.148111	1.218743	0.298872	542.340515
6573.149016	0.703700	0.298872	1179.188965
6573.149945	0.093772	0.298872	1266.303101
6573.150857	0.091183	0.298872	1349.461914
6573.151761	0.091190	0.298872	1431.897827
6573.152647	0.091219	0.298872	1512.718262
6573.153595	0.091245	0.298872	1599.218628
6573.154500	0.091198	0.298872	1681.752441
6573.155397	0.091150	0.298872	1763.513916
6573.156319	0.091113	0.298872	1847.520386
6573.157241	0.091187	0.298872	1931.594360
6573.158148	0.091113	0.298872	2014.234131
6574.191066	1.226642	0.297926	555.668701
6574.191967	0.704191	0.297926	1190.144531
6574.192894	0.094376	0.297926	1277.631348
6574.193807	0.091099	0.297926	1360.804443
6574.194708	0.091146	0.297926	1442.927246
6574.195602	0.091121	0.297926	1524.389038
6574.196535	0.091161	0.297926	1609.442139
6574.197437	0.091099	0.297926	1691.613159
6574.198338	0.091183	0.297926	1773.768921
6574.199226	0.091143	0.297926	1854.703491
6574.200172	0.091263	0.297926	1941.038696
6574.201079	0.091194	0.297926	2023.751465
6575.263720	1.243663	0.298328	573.328857
6575.264627	0.682218	0.298328	1192.100586
6575.265511	0.093882	0.298328	1275.092163
6575.266459	0.091168	0.298328	1361.519653
6575.267354	0.091036	0.298328	1442.997192
6575.268254	0.091128	0.298328	1525.012329
6575.269141	0.091179	0.298328	1605.888306
6575.270102	0.091260	0.298328	1693.588989
6575.271010	0.091102	0.298328	1776.309814
6575.271912	0.091146	0.298328	1858.523682
6575.272835	0.091161	0.298328	1942.665161
6575.273736	0.091194	0.298328	2024.830811
6576.304588	1.203259	0.300705	529.434082
6576.305490	0.719337	0.300705	1178.276123
6576.306435	0.093329	0.300705	1266.471924
6576.307350	0.091205	0.300705	1349.924316
6576.308253	0.091066	0.300705	1432.156616
6576.309140	0.091128	0.300705	1512.987061
6576.310084	0.091187	0.300705	1599.067139
6576.310992	0.091055	0.300705	1681.744751
6576.311877	0.091146	0.300705	1762.409180
6576.312801	0.091135	0.300705	1846.618164
6576.313703	0.091263	0.300705	1928.937744
6576.314603	0.091124	0.300705	2010.949585
6577.379330	1.244454	0.296616	617.249390
6577.380258	0.577430	0.296616	1153.104736
6577.381155	0.092607	0.296616	1236.173584
6577.382041	0.091047	0.296616	1316.841553
6577.382996	0.091146	0.296616	1403.886230
6577.383898	0.091143	0.296616	1486.096802
6577.384805	0.091168	0.296616	1568.786377
6577.385691	0.091183	0.296616	1649.574341
6577.386622	0.091238	0.296616	1734.516724
6577.387525	0.091121	0.296616	1816.798584
6577.388422	0.090992	0.296616	1898.418823
6577.389358	0.091165	0.296616	1983.748779
6578.418129	1.209628	0.303380	532.236206
6578.419054	0.710468	0.303380	1189.418701
6578.419987	0.093428	0.303380	1276.586792
6578.420886	0.091062	0.303380	1358.451538
6578.421782	0.091139	0.303380	1440.112061
6578.422707	0.091223	0.303380	1524.493408
6578.423614	0.091176	0.303380	1607.189575
6578.424517	0.091176	0.303380	1689.521118
6578.425403	0.091161	0.303380	1770.289673
6578.426343	0.091278	0.303380	1856.091064
6578.427244	0.091263	0.303380	1938.319458
6578.428132	0.091176	0.303380	2019.283325
6579.494352	1.208906	0.297225	533.127686
6579.495254	0.723530	0.297225	1185.751953
6579.496225	0.092849	0.297225	1275.908447
6579.497133	0.091143	0.297225	1358.665894
6579.498027	0.091179	0.297225	1440.180054
6579.498940	0.091161	0.297225	1523.409912
6579.499860	0.091161	0.297225	1607.277954
6579.500769	0.091183	0.297225	1690.163208
6579.501656	0.091190	0.297225	1771.048950
6579.502589	0.091223	0.297225	1856.160156
6579.503499	0.091165	0.297225	1939.119873
6579.504402	0.091179	0.297225	2021.454712
6580.531664	1.211019	0.305422	537.692566
6580.532633	0.611217	0.305422	1129.961914
6580.533542	0.092791	0.305422	1214.308472
6580.534446	0.091183	0.305422	1296.737793
6580.535332	0.091128	0.305422	1377.477173
6580.536279	0.091179	0.305422	1463.823853
6580.537189	0.091069	0.305422	1546.696899
6580.538082	0.091168	0.305422	1628.110107
6580.539017	0.091099	0.305422	1713.287354
6580.539922	0.091293	0.305422	1795.907227
6580.540825	0.091124	0.305422	1878.192383
6580.541713	0.091135	0.305422	1959.120483
6581.608965	1.241558	0.298783	614.570984
6581.609886	0.611909	0.298783	1178.139404
6581.610781	0.092941	0.298783	1261.321289
6581.611667	0.091190	0.298783	1342.115845
6581.612600	0.091249	0.298783	1427.250977
6581.613501	0.091179	0.298783	1509.403442
6581.614401	0.091194	0.298783	1591.477905
6581.615289	0.091260	0.298783	1672.516602
6581.616250	0.091190	0.298783	1760.150391
6581.617163	0.091154	0.298783	1843.373535
6581.618056	0.091099	0.298783	1924.724609
6581.618992	0.091318	0.298783	2010.198608
6582.646246	1.231450	0.303493	559.078369
6582.647168	0.657385	0.303493	1165.187622
6582.648063	0.093424	0.303493	1248.802124
6582.649003	0.091146	0.303493	1334.479614
6582.649912	0.091289	0.303493	1417.461426
6582.650813	0.091176	0.303493	1499.610596
6582.651702	0.091179	0.303493	1580.668945
6582.652639	0.091249	0.303493	1666.169067
6582.653548	0.091208	0.303493	1749.077637
6582.654439	0.091201	0.303493	1830.337891
6582.655373	0.091223	0.303493	1915.540283
6582.656282	0.091293	0.303493	1998.525391
6583.722978	1.225393	0.302147	550.201477
6583.723879	0.708666	0.302147	1188.709351
6583.724767	0.094248	0.302147	1272.401611
6583.725698	0.091161	0.302147	1357.272461
6583.726619	0.091208	0.302147	1441.275513
6583.727525	0.091121	0.302147	1523.830811
6583.728415	0.091124	0.302147	1604.931396
6583.729365	0.091267	0.302147	1691.635132
6583.730271	0.091055	0.302147	1774.130737
6583.731167	0.091187	0.302147	1855.833862
6583.732053	0.090996	0.302147	1936.456421
6583.732992	0.091256	0.302147	2022.145874
6584.761803	1.202736	0.304496	524.392700
6584.762752	0.699349	0.304496	1188.075195
6584.763663	0.093212	0.304496	1272.990967
6584.764564	0.091135	0.304496	1355.103882
6584.765449	0.091176	0.304496	1435.794189
6584.766427	0.091216	0.304496	1525.003296
6584.767322	0.091117	0.304496	1606.552979
6584.768232	0.091128	0.304496	1689.479370
6584.769129	0.091205	0.304496	1771.290039
6584.770077	0.091216	0.304496	1857.762695
6584.770981	0.091077	0.304496	1940.095947
6584.771870	0.091179	0.304496	2021.154297
6585.835465	1.202860	0.304838	528.055603
6585.836438	0.603369	0.304838	1115.133789
6585.837349	0.092809	0.304838	1199.682617
6585.838241	0.091143	0.304838	1280.981812
6585.839143	0.091084	0.304838	1363.139526
6585.840077	0.091274	0.304838	1448.389893
6585.840966	0.091154	0.304838	1529.425415
6585.841854	0.091132	0.304838	1610.350220
6585.842789	0.091187	0.304838	1695.609619
6585.843699	0.091176	0.304838	1778.579346
6585.844617	0.091128	0.304838	1862.234741
6585.845510	0.091205	0.304838	1943.680664
6586.878928	1.211385	0.304987	535.432373
6586.879852	0.692329	0.304987	1175.144531
6586.880737	0.094131	0.304987	1258.450317
6586.881674	0.091110	0.304987	1343.820068
6586.882580	0.091245	0.304987	1426.488159
6586.883471	0.091172	0.304987	1507.722290
6586.884358	0.091187	0.304987	1588.604736
6586.885298	0.091249	0.304987	1674.378540
6586.886205	0.091183	0.304987	1757.081421
6586.887108	0.091230	0.304987	1839.462524
6586.887993	0.091190	0.304987	1920.165771
6586.888940	0.091216	0.304987	2006.547119
6587.949017	1.227400	0.305257	548.647705
6587.949942	0.665094	0.305257	1163.859619
6587.950839	0.093593	0.305257	1247.812134
6587.951771	0.091205	0.305257	1332.815063
6587.952678	0.091146	0.305257	1415.484741
6587.953584	0.091051	0.305257	1497.976929
6587.954476	0.091216	0.305257	1579.341431
6587.955421	0.091278	0.305257	1665.599243
6587.956326	0.091110	0.305257	1748.053467
6587.957216	0.091179	0.305257	1829.203003
6587.958132	0.091227	0.305257	1912.766724
6587.959055	0.091219	0.305257	1996.962280
6588.993482	1.198246	0.302917	522.435181
6588.994372	0.742126	0.302917	1182.927734
6588.995338	0.093219	0.302917	1272.977295
6588.996253	0.091157	0.302917	1356.386108
6588.997155	0.091172	0.302917	1438.623169
6588.998081	0.091245	0.302917	1523.116089
6588.998989	0.091208	0.302917	1605.933350
6588.999893	0.091194	0.302917	1688.372559
6589.000784	0.091069	0.302917	1769.515381
6589.001732	0.091168	0.302917	1855.942871
6589.002632	0.091154	0.302917	1937.981079
6589.003530	0.091128	0.302917	2019.813965
6590.061589	1.286829	0.308552	664.003601
6590.062507	0.573673	0.308552	1190.635498
6590.063403	0.092688	0.308552	1273.683960
6590.064288	0.091099	0.308552	1354.306274
6590.065225	0.091245	0.308552	1439.802979
6590.066127	0.091208	0.308552	1522.072998
6590.067024	0.091172	0.308552	1603.854126
6590.067944	0.091117	0.308552	1687.681763
6590.068856	0.091307	0.308552	1770.954102
6590.069758	0.091179	0.308552	1853.197754
6590.070654	0.091124	0.308552	1934.845093
6590.071594	0.091154	0.308552	2020.529419
6591.110110	1.221478	0.304037	546.000793
6591.111000	0.703682	0.304037	1172.277466
6591.111953	0.093274	0.304037	1261.167480
6591.112868	0.091007	0.304037	1344.438965
6591.113757	0.091132	0.304037	1425.454956
6591.114682	0.091150	0.304037	1509.768555
6591.115586	0.091234	0.304037	1592.244141
6591.116482	0.091055	0.304037	1673.829102
6591.117368	0.091124	0.304037	1754.565186
6591.118314	0.091139	0.304037	1840.782593
6591.119217	0.091110	0.304037	1923.054565
6591.120129	0.091146	0.304037	2006.179932
6592.173008	1.207793	0.315219	533.844482
6592.173903	0.729313	0.315219	1186.579346
6592.174872	0.092941	0.315219	1276.638916
6592.175770	0.091121	0.315219	1358.465210
6592.176668	0.091139	0.315219	1440.307983
6592.177555	0.091176	0.315219	1521.180664
6592.178497	0.091187	0.315219	1607.078369
6592.179396	0.091150	0.315219	1689.022095
6592.180291	0.091179	0.315219	1770.627441
6592.181222	0.091117	0.315219	1855.457275
6592.182126	0.091208	0.315219	1937.909790
6592.183028	0.091135	0.315219	2020.113770
6593.226703	1.208463	0.303956	530.515320
6593.227650	0.699543	0.303956	1192.982910
6593.228565	0.093014	0.303956	1278.090576
6593.229468	0.091154	0.303956	1360.402222
6593.230364	0.091066	0.303956	1441.997070
6593.231308	0.091234	0.303956	1528.122070
6593.232211	0.091201	0.303956	1610.476685
6593.233104	0.091135	0.303956	1691.860474
6593.233988	0.091168	0.303956	1772.453125
6593.234926	0.091165	0.303956	1857.965454
6593.235837	0.091252	0.303956	1941.096436
6593.236736	0.091150	0.303956	2023.040161
6594.286034	1.221233	0.316899	545.891174
6594.286931	0.715671	0.316899	1187.848389
6594.287884	0.093402	0.316899	1276.860596
6594.288786	0.091117	0.316899	1359.048096
6594.289686	0.091154	0.316899	1441.086304
6594.290576	0.091135	0.316899	1522.196655
6594.291505	0.091190	0.316899	1606.912354
6594.292402	0.091069	0.316899	1688.601562
6594.293302	0.091190	0.316899	1770.672729
6594.294224	0.091121	0.316899	1854.685913
6594.295129	0.091216	0.316899	1937.236206
6594.296038	0.091073	0.316899	2020.021606
6595.342794	1.196700	0.303424	519.367981
6595.343689	0.741899	0.303424	1183.367920
6595.344625	0.093732	0.303424	1271.100830
6595.345537	0.091187	0.303424	1354.262939
6595.346437	0.091165	0.303424	1436.311035
6595.347343	0.091201	0.303424	1518.939331
6595.348267	0.091201	0.303424	1603.209229
6595.349176	0.091157	0.303424	1686.071167
6595.350068	0.091106	0.303424	1767.337646
6595.350990	0.091216	0.303424	1851.438599
6595.351897	0.091143	0.303424	1934.104980
6595.352800	0.091263	0.303424	2016.515869
6596.398548	1.225133	0.315501	545.184204
6596.399457	0.697485	0.315501	1179.198486
6596.400344	0.094215	0.315501	1262.767212
6596.401313	0.091194	0.315501	1351.134033
6596.402227	0.091073	0.315501	1434.374756
6596.403127	0.091095	0.315501	1516.360229
6596.404058	0.091128	0.315501	1601.200317
6596.404960	0.091128	0.315501	1683.397705
6596.405848	0.090985	0.315501	1764.192505
6596.406736	0.090981	0.315501	1844.984009
6596.407669	0.091157	0.315501	1930.033691
6596.408566	0.091183	0.315501	2011.824707
6597.459911	1.197155	0.301970	517.170776
6597.460871	0.662069	0.301970	1152.757080
6597.461785	0.093168	0.301970	1237.912354
6597.462685	0.091157	0.301970	1319.953857
6597.463570	0.091117	0.301970	1400.592407
6597.464516	0.091190	0.301970	1486.858276
6597.465421	0.091201	0.301970	1569.395386
6597.466313	0.091146	0.301970	1650.697876
6597.467244	0.091227	0.301970	1735.630005
6597.468142	0.091234	0.301970	1817.558228
6597.469054	0.091146	0.301970	1900.683594
6597.469952	0.091124	0.301970	1982.513184
6598.511062	1.217296	0.318075	538.044861
6598.511986	0.689696	0.318075	1175.323975
6598.512882	0.093933	0.318075	1259.488037
6598.513821	0.091154	0.318075	1345.081299
6598.514732	0.091230	0.318075	1428.192261
6598.515629	0.091044	0.318075	1509.858398
6598.516532	0.091143	0.318075	1592.160156
6598.517448	0.091139	0.318075	1675.643433
6598.518354	0.091113	0.318075	1758.192017
6598.519259	0.091106	0.318075	1840.642944
6598.520145	0.090978	0.318075	1921.249268
6598.521095	0.091219	0.318075	2007.907715
6599.575513	1.223562	0.304596	550.602905
6599.576414	0.708395	0.304596	1188.866577
6599.577326	0.094222	0.304596	1274.797363
6599.578245	0.091154	0.304596	1358.567505
6599.579149	0.091022	0.304596	1440.851196
6599.580040	0.091165	0.304596	1522.078857
6599.580972	0.091216	0.304596	1607.092041
6599.581885	0.091146	0.304596	1690.308594
6599.582782	0.091165	0.304596	1772.083252
6599.583707	0.091102	0.304596	1856.352905
6599.584605	0.091187	0.304596	1938.238403
6599.585510	0.091025	0.304596	2020.616333
6600.624124	1.237844	0.319686	604.067993
6600.625048	0.618413	0.319686	1175.481689
6600.625942	0.093032	0.319686	1258.652466
6600.626829	0.091106	0.319686	1339.463501
6600.627770	0.091172	0.319686	1425.256226
6600.628675	0.091069	0.319686	1507.673950
6600.629578	0.091194	0.319686	1590.021973
6600.630466	0.091110	0.319686	1670.927368
6600.631414	0.091198	0.319686	1757.382568
6600.632315	0.091040	0.319686	1839.409668
6600.633201	0.091095	0.319686	1920.119873
6600.634135	0.091146	0.319686	2005.250488
6601.691631	1.250391	0.308303	585.182739
6601.692544	0.666790	0.308303	1193.961670
6601.693432	0.093571	0.308303	1277.052368
6601.694364	0.091219	0.308303	1362.068970
6601.695286	0.090992	0.308303	1445.963989
6601.696191	0.091117	0.308303	1528.424805
6601.697079	0.091036	0.308303	1609.265137
6601.698007	0.091227	0.308303	1693.923584
6601.698929	0.091132	0.308303	1777.946899
6601.699852	0.091150	0.308303	1862.078247
6601.700738	0.091084	0.308303	1942.778687
6601.701691	0.091157	0.308303	2029.651489
6602.737096	1.197850	0.321201	521.064880
6602.738076	0.617519	0.321201	1126.234009
6602.738977	0.092856	0.321201	1209.897705
6602.739898	0.091113	0.321201	1293.812988
6602.740800	0.091176	0.321201	1376.053345
6602.741743	0.091018	0.321201	1461.883423
6602.742647	0.091165	0.321201	1544.296143
6602.743536	0.091154	0.321201	1625.331665
6602.744464	0.091201	0.321201	1709.966309
6602.745378	0.091132	0.321201	1793.260620
6602.746296	0.091139	0.321201	1876.926147
6602.747185	0.091190	0.321201	1957.994263
6603.807172	1.201879	0.308911	521.615356
6603.808138	0.646838	0.308911	1146.461182
6603.809052	0.092849	0.308911	1231.325317
6603.809946	0.091198	0.308911	1312.855957
6603.810879	0.091271	0.308911	1398.011597
6603.811789	0.091113	0.308911	1480.924683
6603.812701	0.091135	0.308911	1564.040039
6603.813587	0.091077	0.308911	1644.734009
6603.814528	0.091154	0.308911	1730.509521
6603.815437	0.091055	0.308911	1813.278198
6603.816350	0.091216	0.308911	1896.558228
6603.817244	0.091084	0.308911	1977.987305
6604.851164	1.229286	0.319900	553.178650
6604.852071	0.698507	0.319900	1186.724609
6604.852954	0.094387	0.319900	1270.068481
6604.853913	0.091296	0.319900	1357.621704
6604.854824	0.091190	0.319900	1440.695923
6604.855718	0.091304	0.319900	1522.321411
6604.856651	0.091216	0.319900	1607.425781
6604.857559	0.091289	0.319900	1690.316284
6604.858458	0.091165	0.319900	1772.273193
6604.859346	0.091183	0.319900	1853.243530
6604.860297	0.091340	0.319900	1940.108154
6604.861197	0.091179	0.319900	2022.169434
6605.921273	1.267009	0.309028	615.766541
6605.922203	0.604724	0.309028	1178.159912
6605.923128	0.092538	0.309028	1263.757446
6605.924018	0.091252	0.309028	1344.972168
6605.924981	0.091135	0.309028	1432.735352
6605.925901	0.091208	0.309028	1516.647217
6605.926795	0.091165	0.309028	1598.148315
6605.927713	0.091179	0.309028	1681.850830
6605.928635	0.091187	0.309028	1765.924805
6605.929549	0.091241	0.309028	1849.319458
6605.930437	0.091227	0.309028	1930.328857
6605.931383	0.091234	0.309028	2016.636353
6606.964179	1.219545	0.321286	541.477844
6606.965086	0.706399	0.321286	1182.181641
6606.965971	0.094351	0.321286	1265.681885
6606.966932	0.091201	0.321286	1353.326172
6606.967841	0.091121	0.321286	1436.154785
6606.968736	0.091135	0.321286	1517.720825
6606.969669	0.091263	0.321286	1602.869629
6606.970578	0.091234	0.321286	1685.801392
6606.971470	0.091183	0.321286	1767.136475
6606.972360	0.091124	0.321286	1848.237061
6606.973311	0.091238	0.321286	1935.004150
6606.974203	0.091190	0.321286	2016.345825
6608.037325	1.215015	0.310731	535.821472
6608.038232	0.720157	0.310731	1189.004272
6608.039121	0.094717	0.310731	1273.207520
6608.040076	0.091216	0.310731	1360.318604
6608.040981	0.091168	0.310731	1442.825806
6608.041872	0.091208	0.310731	1524.092529
6608.042784	0.091176	0.310731	1607.244629
6608.043711	0.091146	0.310731	1691.737183
6608.044622	0.091150	0.310731	1774.774780
6608.045520	0.091139	0.310731	1856.617554
6608.046439	0.091102	0.310731	1940.340576
6608.047326	0.091172	0.310731	2021.210083
6609.079245	1.209624	0.326793	524.976868
6609.080146	0.703008	0.326793	1158.386963
6609.081110	0.092992	0.326793	1248.031250
6609.082013	0.091176	0.326793	1330.362793
6609.082930	0.091274	0.326793	1414.061401
6609.083817	0.091146	0.326793	1494.908081
6609.084765	0.091263	0.326793	1581.425781
6609.085687	0.091238	0.326793	1665.546997
6609.086574	0.091198	0.326793	1746.439209
6609.087532	0.091311	0.326793	1833.915161
6609.088425	0.091252	0.326793	1915.403564
6609.089339	0.091183	0.326793	1998.744751
6610.151889	1.214158	0.313753	542.728516
6610.152786	0.714459	0.313753	1183.598389
6610.153741	0.094083	0.313753	1273.447876
6610.154651	0.091150	0.313753	1356.394287
6610.155572	0.091179	0.313753	1440.370361
6610.156463	0.091146	0.313753	1521.581665
6610.157419	0.091219	0.313753	1608.787476
6610.158327	0.091102	0.313753	1691.508301
6610.159214	0.091216	0.313753	1772.416748
6610.160133	0.091223	0.313753	1856.250854
6610.161059	0.091154	0.313753	1940.659058
6610.161951	0.091260	0.313753	2022.062744
6611.193833	1.247706	0.324875	576.440308
6611.194752	0.654005	0.324875	1177.470947
6611.195679	0.093138	0.324875	1263.810303
6611.196569	0.091219	0.324875	1344.995605
6611.197521	0.091143	0.324875	1431.763306
6611.198410	0.091198	0.324875	1512.837891
6611.199296	0.091143	0.324875	1593.590210
6611.200233	0.091234	0.324875	1679.076538
6611.201144	0.091117	0.324875	1762.084106
6611.202063	0.091157	0.324875	1845.857544
6611.202960	0.091278	0.324875	1927.734009
6611.203914	0.091154	0.324875	2014.694458
6612.265418	1.206343	0.313048	527.171753
6612.266398	0.637635	0.313048	1152.054443
6612.267313	0.092834	0.313048	1236.998047
6612.268210	0.091337	0.313048	1318.927002
6612.269094	0.091315	0.313048	1399.649170
6612.270037	0.091274	0.313048	1485.720947
6612.270941	0.091183	0.313048	1568.150269
6612.271829	0.091245	0.313048	1649.175903
6612.272731	0.091154	0.313048	1731.396484
6612.273661	0.091230	0.313048	1816.240845
6612.274566	0.091267	0.313048	1898.837524
6612.275451	0.091110	0.313048	1979.469482
6613.308363	1.207343	0.324666	528.816040
6613.309262	0.712046	0.324666	1168.945312
6613.310228	0.092930	0.324666	1258.715332
6613.311132	0.091117	0.324666	1341.085083
6613.312025	0.091168	0.324666	1422.498291
6613.312951	0.091135	0.324666	1506.889526
6613.313868	0.091069	0.324666	1590.400146
6613.314769	0.091143	0.324666	1672.519653
6613.315655	0.091128	0.324666	1753.259033
6613.316591	0.091344	0.324666	1838.757080
6613.317491	0.091157	0.324666	1920.798584
6613.318410	0.091135	0.324666	2004.551880
6614.380038	1.288345	0.311799	645.460693
6614.380963	0.581206	0.311799	1183.076294
6614.381889	0.092164	0.311799	1268.420410
6614.382778	0.091146	0.311799	1349.449463
6614.383729	0.091205	0.311799	1436.185303
6614.384626	0.091110	0.311799	1517.910645
6614.385514	0.091245	0.311799	1598.936279
6614.386449	0.091161	0.311799	1684.171753
6614.387356	0.091194	0.311799	1766.884521
6614.388248	0.091223	0.311799	1848.255615
6614.389133	0.091234	0.311799	1928.997803
6614.390064	0.091168	0.311799	2013.875366
6615.421913	1.213759	0.325060	537.695068
6615.422807	0.710343	0.325060	1172.741699
6615.423772	0.093278	0.325060	1262.754517
6615.424667	0.091230	0.325060	1344.405762
6615.425555	0.091128	0.325060	1425.327393
6615.426491	0.091187	0.325060	1510.677979
6615.427399	0.091084	0.325060	1593.382202
6615.428315	0.091080	0.325060	1676.811768
6615.429208	0.091124	0.325060	1758.185791
6615.430162	0.091168	0.325060	1845.160278
6615.431072	0.091190	0.325060	1928.143311
6615.431962	0.091095	0.325060	2009.217773
6616.494037	1.214136	0.312653	539.076294
6616.494940	0.716206	0.312653	1185.810303
6616.495829	0.094438	0.312653	1269.766113
6616.496788	0.091150	0.312653	1357.178833
6616.497680	0.091121	0.312653	1438.458374
6616.498572	0.091150	0.312653	1519.764038
6616.499495	0.091183	0.312653	1603.925781
6616.500403	0.091058	0.312653	1686.606812
6616.501300	0.091205	0.312653	1768.417480
6616.502188	0.091014	0.312653	1849.238281
6616.503125	0.091274	0.312653	1934.762451
6616.504038	0.091172	0.312653	2018.002319
6617.537491	1.216780	0.327884	541.466980
6617.538394	0.714543	0.327884	1186.699707
6617.539298	0.094607	0.327884	1272.224365
6617.540233	0.091194	0.327884	1357.490601
6617.541124	0.091208	0.327884	1438.757324
6617.542013	0.091219	0.327884	1519.851440
6617.542960	0.091091	0.327884	1606.114868
6617.543854	0.091033	0.327884	1687.498169
6617.544775	0.091080	0.327884	1771.383179
6617.545671	0.091121	0.327884	1853.027222
6617.546609	0.091219	0.327884	1938.591064
6617.547514	0.091121	0.327884	2021.055176
6618.607610	1.238811	0.315360	600.823364
6618.608510	0.641147	0.315360	1177.856079
6618.609454	0.093387	0.315360	1266.013794
6618.610361	0.091073	0.315360	1348.616943
6618.611278	0.091146	0.315360	1432.197998
6618.612172	0.091183	0.315360	1513.715454
6618.613111	0.091234	0.315360	1599.384277
6618.614019	0.091146	0.315360	1682.145020
6618.614940	0.091135	0.315360	1766.080566
6618.615827	0.091132	0.315360	1846.914307
6618.616766	0.091084	0.315360	1932.442139
6618.617663	0.091018	0.315360	2014.085327
6619.652597	1.226173	0.330946	591.015381
6619.653513	0.618479	0.330946	1157.542114
6619.654443	0.092633	0.330946	1243.690918
6619.655332	0.091139	0.330946	1324.713379
6619.656273	0.091219	0.330946	1410.550903
6619.657175	0.091179	0.330946	1492.794556
6619.658082	0.091066	0.330946	1575.391113
6619.658973	0.091128	0.330946	1656.586060
6619.659935	0.091245	0.330946	1744.363892
6619.660840	0.091183	0.330946	1826.884399
6619.661734	0.091106	0.330946	1908.333130
6619.662659	0.091238	0.330946	1992.728027
6620.721653	1.229011	0.315767	589.925415
6620.722577	0.614030	0.315767	1157.288696
6620.723476	0.092955	0.315767	1240.855469
6620.724365	0.091234	0.315767	1321.962646
6620.725299	0.091326	0.315767	1407.260864
6620.726208	0.091143	0.315767	1490.109497
6620.727111	0.091124	0.315767	1572.394653
6620.727995	0.091198	0.315767	1653.013306
6620.728932	0.091282	0.315767	1738.544312
6620.729834	0.091274	0.315767	1820.873779
6620.730724	0.091183	0.315767	1902.026489
6620.731651	0.091249	0.315767	1986.614136
6621.768192	1.238478	0.332730	610.569580
6621.769124	0.575753	0.332730	1147.171509
6621.770020	0.092706	0.332730	1230.236328
6621.770910	0.091165	0.332730	1311.372803
6621.771842	0.091252	0.332730	1396.420044
6621.772746	0.091212	0.332730	1478.875854
6621.773648	0.091198	0.332730	1561.135986
6621.774532	0.091263	0.332730	1641.812866
6621.775472	0.091212	0.332730	1727.552246
6621.776379	0.091201	0.332730	1810.271729
6621.777269	0.091208	0.332730	1891.447266
6621.778199	0.091241	0.332730	1976.301758
6622.834686	1.223291	0.320387	596.966003
6622.835615	0.594148	0.320387	1148.929443
6622.836520	0.092776	0.320387	1232.891602
6622.837421	0.091161	0.320387	1315.027588
6622.838351	0.091219	0.320387	1399.861694
6622.839255	0.091187	0.320387	1482.294312
6622.840156	0.091139	0.320387	1564.410522
6622.841044	0.091205	0.320387	1645.400391
6622.841986	0.091234	0.320387	1731.342896
6622.842888	0.091176	0.320387	1813.583252
6622.843780	0.091278	0.320387	1895.003296
6622.844711	0.091263	0.320387	1979.969604
6623.883732	1.216033	0.331030	532.622314
6623.884670	0.692197	0.331030	1181.903320
6623.885577	0.093607	0.331030	1266.805054
6623.886475	0.091095	0.331030	1348.608398
6623.887365	0.091168	0.331030	1429.748047
6623.888295	0.091340	0.331030	1514.694580
6623.889198	0.091263	0.331030	1597.105469
6623.890104	0.091077	0.331030	1679.620972
6623.890992	0.091190	0.331030	1760.597900
6623.891941	0.091234	0.331030	1847.179077
6623.892847	0.091161	0.331030	1929.770874
6623.893744	0.091168	0.331030	2011.548706
6624.948695	1.217380	0.322611	540.516846
6624.949626	0.676710	0.322611	1170.534058
6624.950520	0.093757	0.322611	1254.353149
6624.951462	0.091080	0.322611	1340.150757
6624.952372	0.091260	0.322611	1423.197144
6624.953269	0.091154	0.322611	1504.961914
6624.954153	0.091168	0.322611	1585.554565
6624.955104	0.091212	0.322611	1672.297363
6624.956006	0.091128	0.322611	1754.494751
6624.956896	0.091121	0.322611	1835.592041
6624.957824	0.091183	0.322611	1920.209717
6624.958730	0.091198	0.322611	2002.834717
6625.999814	1.202875	0.334104	526.859131
6626.000705	0.735381	0.334104	1182.083496
6626.001678	0.093179	0.334104	1272.746338
6626.002586	0.091194	0.334104	1355.550293
6626.003475	0.091095	0.334104	1436.533691
6626.004405	0.091139	0.334104	1521.292847
6626.005315	0.091249	0.334104	1604.329224
6626.006207	0.091088	0.334104	1685.579346
6626.007095	0.091084	0.334104	1766.461914
6626.008022	0.091176	0.334104	1850.981689
6626.008924	0.091230	0.334104	1933.271606
6626.009831	0.091252	0.334104	2016.037598
6627.059662	1.202754	0.320118	529.211731
6627.060555	0.731715	0.320118	1182.633301
6627.061519	0.093219	0.320118	1272.496460
6627.062426	0.091157	0.320118	1355.176025
6627.063317	0.091249	0.320118	1436.478638
6627.064240	0.091146	0.320118	1520.606567
6627.065153	0.091183	0.320118	1603.856567
6627.066059	0.091080	0.320118	1686.375366
6627.066953	0.091124	0.320118	1767.840454
6627.067876	0.091154	0.320118	1851.975220
6627.068778	0.091187	0.320118	1934.225464
6627.069677	0.091208	0.320118	2016.221924
6628.117498	1.221687	0.332634	594.961609
6628.118425	0.598901	0.332634	1150.143066
6628.119332	0.092692	0.332634	1234.214355
6628.120230	0.091029	0.332634	1315.958496
6628.121154	0.091194	0.332634	1400.221558
6628.122055	0.091165	0.332634	1482.360840
6628.122959	0.091234	0.332634	1564.836426
6628.123844	0.091172	0.332634	1645.523560
6628.124779	0.091289	0.332634	1730.878784
6628.125685	0.091201	0.332634	1813.507080
6628.126575	0.091124	0.332634	1894.607666
6628.127509	0.091198	0.332634	1979.786133
6629.172185	1.219819	0.323107	546.479065
6629.173086	0.708787	0.323107	1185.095825
6629.174016	0.094347	0.323107	1272.838501
6629.174944	0.091198	0.323107	1357.469849
6629.175848	0.091084	0.323107	1439.809814
6629.176749	0.091088	0.323107	1521.879761
6629.177679	0.091241	0.323107	1606.734375
6629.178580	0.091241	0.323107	1688.942871
6629.179479	0.091143	0.323107	1770.880005
6629.180365	0.091143	0.323107	1851.632324
6629.181309	0.091208	0.323107	1937.733154
6629.182207	0.091113	0.323107	2019.552856
6630.233043	1.210587	0.331518	531.447754
6630.233990	0.696097	0.331518	1190.651978
6630.234896	0.093483	0.331518	1275.347290
6630.235786	0.091154	0.331518	1356.473999
6630.236671	0.091201	0.331518	1437.187012
6630.237608	0.091245	0.331518	1522.683716
6630.238511	0.091132	0.331518	1604.975586
6630.239415	0.091190	0.331518	1687.411499
6630.240300	0.091194	0.331518	1768.118042
6630.241252	0.091260	0.331518	1854.997314
6630.242162	0.091190	0.331518	1937.980347
6630.243054	0.091165	0.331518	2019.299072
6631.284718	1.223013	0.324021	578.484985
6631.285657	0.605969	0.324021	1147.489990
6631.286552	0.092926	0.324021	1230.658813
6631.287440	0.091091	0.324021	1311.547852
6631.288385	0.091227	0.324021	1397.757202
6631.289285	0.091157	0.324021	1479.798706
6631.290196	0.091069	0.324021	1562.762817
6631.291089	0.091168	0.324021	1644.176025
6631.292049	0.091165	0.324021	1731.693970
6631.292952	0.091099	0.324021	1813.956055
6631.293841	0.091198	0.324021	1895.030640
6631.294766	0.091223	0.324021	1979.412109
6632.349653	1.214506	0.329826	545.313049
6632.350555	0.708896	0.329826	1184.737671
6632.351498	0.094017	0.329826	1273.395996
6632.352421	0.091113	0.329826	1357.493530
6632.353336	0.091121	0.329826	1440.868896
6632.354225	0.090941	0.329826	1521.715576
6632.355176	0.091117	0.329826	1608.367798
6632.356070	0.091073	0.329826	1689.787109
6632.356991	0.091099	0.329826	1773.688965
6632.357877	0.091154	0.329826	1854.451050
6632.358819	0.091077	0.329826	1940.245239
6632.359727	0.091190	0.329826	2023.045898
6633.397240	1.259535	0.329705	609.614929
6633.398168	0.601692	0.329705	1167.984985
6633.399068	0.092791	0.329705	1251.496460
6633.399954	0.091187	0.329705	1332.287720
6633.400904	0.091274	0.329705	1418.998413
6633.401806	0.091219	0.329705	1501.278442
6633.402702	0.091073	0.329705	1582.879883
6633.403630	0.091227	0.329705	1667.538330
6633.404540	0.091263	0.329705	1750.588013
6633.405451	0.091091	0.329705	1833.572144
6633.406345	0.091132	0.329705	1915.043823
6633.407281	0.091201	0.329705	2000.408081
6634.466253	1.206940	0.332734	528.639587
6634.467214	0.636632	0.332734	1140.442993
6634.468118	0.093197	0.332734	1224.693115
6634.469014	0.091110	0.332734	1306.327393
6634.469897	0.091165	0.332734	1386.825684
6634.470829	0.091234	0.332734	1471.855835
6634.471744	0.091157	0.332734	1555.264648
6634.472645	0.091150	0.332734	1637.390747
6634.473577	0.091179	0.332734	1722.369751
6634.474481	0.091176	0.332734	1804.792480
6634.475385	0.091154	0.332734	1887.195312
6634.476269	0.091146	0.332734	1967.768555
6635.510266	1.247648	0.333963	610.099670
6635.511198	0.585656	0.333963	1155.930664
6635.512102	0.092527	0.333963	1239.574951
6635.512993	0.091135	0.333963	1320.776489
6635.513948	0.091146	0.333963	1407.821167
6635.514856	0.091135	0.333963	1490.572021
6635.515747	0.091165	0.333963	1571.799683
6635.516661	0.091216	0.333963	1655.170898
6635.517576	0.091205	0.333963	1738.623291
6635.518479	0.091161	0.333963	1820.941528
6635.519376	0.091117	0.333963	1902.673462
6635.520308	0.091201	0.333963	1987.672974
6636.581347	1.232201	0.332021	561.883667
6636.582252	0.691699	0.332021	1187.871460
6636.583139	0.094054	0.332021	1271.297363
6636.584096	0.091216	0.332021	1358.590942
6636.585008	0.091106	0.332021	1441.679565
6636.585903	0.091073	0.332021	1523.189941
6636.586834	0.091187	0.332021	1608.084595
6636.587740	0.091172	0.332021	1690.686279
6636.588641	0.091157	0.332021	1772.818970
6636.589530	0.091102	0.332021	1853.808960
6636.590471	0.091128	0.332021	1939.560303
6636.591371	0.091157	0.332021	2021.601807
6637.623779	1.237782	0.332013	564.428589
6637.624699	0.675491	0.332013	1185.880127
6637.625586	0.093680	0.332013	1268.974609
6637.626509	0.091095	0.332013	1353.055298
6637.627424	0.091121	0.332013	1436.430664
6637.628328	0.091066	0.332013	1518.754028
6637.629222	0.091150	0.332013	1600.242065
6637.630156	0.091201	0.332013	1685.423950
6637.631056	0.091187	0.332013	1767.491821
6637.631953	0.091190	0.332013	1849.289429
6637.632840	0.091029	0.332013	1930.032227
6637.633788	0.091212	0.332013	2016.501343
6638.695879	1.196917	0.331667	521.855652
6638.696856	0.600183	0.331667	1108.234619
6638.697760	0.092695	0.331667	1192.031250
6638.698657	0.091077	0.331667	1273.727051
6638.699542	0.091051	0.331667	1354.307251
6638.700493	0.091135	0.331667	1440.976929
6638.701399	0.091062	0.331667	1523.479126
6638.702291	0.091051	0.331667	1604.696655
6638.703215	0.091234	0.331667	1688.996948
6638.704124	0.091172	0.331667	1771.872192
6638.705024	0.091066	0.331667	1853.831299
6638.705912	0.091194	0.331667	1934.811401
6639.737815	1.216436	0.333987	544.963135
6639.738711	0.714613	0.333987	1185.256348
6639.739653	0.094310	0.333987	1274.096680
6639.740567	0.091216	0.333987	1357.467896
6639.741471	0.091230	0.333987	1439.940186
6639.742370	0.091062	0.333987	1521.804932
6639.743299	0.091249	0.333987	1606.575073
6639.744203	0.091187	0.333987	1689.007690
6639.745106	0.090981	0.333987	1771.163940
6639.745993	0.091121	0.333987	1851.987915
6639.746934	0.091234	0.333987	1937.839233
6639.747843	0.091088	0.333987	2020.637939
6640.810961	1.213308	0.332428	537.495483
6640.811874	0.704561	0.332428	1180.759277
6640.812761	0.094222	0.332428	1264.334595
6640.813674	0.091198	0.332428	1347.597900
6640.814608	0.091018	0.332428	1432.608765
6640.815503	0.091102	0.332428	1514.145264
6640.816392	0.091102	0.332428	1595.135254
6640.817323	0.091146	0.332428	1679.992432
6640.818224	0.091095	0.332428	1762.068970
6640.819136	0.091044	0.332428	1845.100830
6640.820034	0.091084	0.332428	1926.894287
6640.820985	0.091223	0.332428	2013.647461
6641.852936	1.251039	0.336928	621.766357
6641.853864	0.575636	0.336928	1155.956543
6641.854766	0.092626	0.336928	1239.505005
6641.855654	0.091168	0.336928	1320.462402
6641.856596	0.091212	0.336928	1406.384277
6641.857496	0.091216	0.336928	1488.478516
6641.858399	0.091084	0.336928	1570.727295
6641.859294	0.091143	0.336928	1652.299927
6641.860236	0.091194	0.336928	1738.204590
6641.861142	0.091117	0.336928	1820.756592
6641.862032	0.091088	0.336928	1901.824585
6641.862968	0.091157	0.336928	1987.147705
6642.925512	1.200326	0.332851	524.542419
6642.926461	0.650779	0.332851	1142.131470
6642.927368	0.093223	0.332851	1226.684448
6642.928270	0.091091	0.332851	1308.848755
6642.929156	0.091194	0.332851	1389.646484
6642.930103	0.091128	0.332851	1475.944580
6642.931005	0.091091	0.332851	1558.108887
6642.931902	0.091029	0.332851	1639.761963
6642.932845	0.091208	0.332851	1725.771606
6642.933741	0.091238	0.332851	1807.520630
6642.934634	0.091128	0.332851	1888.897827
6642.935520	0.091088	0.332851	1969.601440
6643.967452	1.223401	0.336255	551.753784
6643.968350	0.711445	0.336255	1190.631714
6643.969289	0.094292	0.336255	1279.171875
6643.970187	0.091238	0.336255	1361.103394
6643.971075	0.091205	0.336255	1442.093262
6643.971968	0.091205	0.336255	1523.539185
6643.972896	0.091260	0.336255	1608.228271
6643.973809	0.091172	0.336255	1691.468140
6643.974709	0.091128	0.336255	1773.483276
6643.975598	0.091165	0.336255	1854.528564
6643.976547	0.091245	0.336255	1941.120117
6643.977459	0.091172	0.336255	2024.268921
6645.038540	1.208232	0.335836	531.622253
6645.039434	0.733781	0.335836	1187.622070
6645.040376	0.093541	0.335836	1275.737915
6645.041300	0.091157	0.335836	1359.967163
6645.042222	0.091179	0.335836	1444.034424
6645.043110	0.091219	0.335836	1525.037354
6645.044074	0.091212	0.335836	1612.965820
6645.044972	0.091157	0.335836	1694.824951
6645.045861	0.091113	0.335836	1775.824707
6645.046809	0.091190	0.335836	1862.272949
6645.047705	0.091157	0.335836	1943.949829
6645.048622	0.091205	0.335836	2027.584717
6646.082563	1.254521	0.335993	622.242676
6646.083477	0.612993	0.335993	1182.518433
6646.084377	0.092970	0.335993	1266.191406
6646.085265	0.091080	0.335993	1347.070679
6646.086213	0.091183	0.335993	1433.512085
6646.087117	0.091124	0.335993	1515.888428
6646.088016	0.091095	0.335993	1597.782837
6646.088929	0.091117	0.335993	1680.972656
6646.089854	0.091168	0.335993	1765.303223
6646.090767	0.091084	0.335993	1848.462891
6646.091667	0.091157	0.335993	1930.504395
6646.092596	0.091154	0.335993	2015.186035
6647.152642	1.279113	0.337298	621.648743
6647.153569	0.593529	0.337298	1171.850098
6647.154471	0.092783	0.337298	1255.540527
6647.155358	0.091095	0.337298	1336.341797
6647.156322	0.091252	0.337298	1424.309204
6647.157232	0.091007	0.337298	1507.125610
6647.158121	0.091143	0.337298	1588.151367
6647.159065	0.091168	0.337298	1674.214111
6647.159960	0.091055	0.337298	1755.708008
6647.160852	0.091165	0.337298	1837.026733
6647.161745	0.091176	0.337298	1918.446533
6647.162670	0.091183	0.337298	2002.790649
6648.198088	1.201417	0.335034	522.616455
6648.199041	0.660443	0.335034	1152.018677
6648.199950	0.092970	0.335034	1236.528320
6648.200849	0.091080	0.335034	1318.409546
6648.201734	0.091099	0.335034	1399.031860
6648.202674	0.091260	0.335034	1484.816040
6648.203576	0.091036	0.335034	1566.930908
6648.204469	0.091227	0.335034	1648.396484
6648.205373	0.091179	0.335034	1730.822510
6648.206287	0.091176	0.335034	1814.156982
6648.207197	0.091069	0.335034	1897.030029
6648.208090	0.091025	0.335034	1978.315674
6649.265133	1.244429	0.338257	592.348083
6649.266035	0.659934	0.338257	1187.608643
6649.266998	0.093182	0.338257	1277.343262
6649.267891	0.090963	0.338257	1358.573364
6649.268809	0.091014	0.338257	1442.124634
6649.269704	0.091011	0.338257	1523.579224
6649.270648	0.091110	0.338257	1609.586670
6649.271565	0.091040	0.338257	1693.070435
6649.272459	0.091150	0.338257	1774.558472
6649.273408	0.091106	0.338257	1861.018066
6649.274319	0.091088	0.338257	1943.998901
6649.275231	0.091161	0.338257	2027.137573
6650.314190	1.208163	0.334640	530.383545
6650.315088	0.711749	0.334640	1169.534424
6650.316046	0.093065	0.334640	1258.690918
6650.316956	0.091029	0.334640	1341.527344
6650.317852	0.091088	0.334640	1423.141846
6650.318787	0.091110	0.334640	1508.329346
6650.319684	0.091165	0.334640	1590.104004
6650.320580	0.091102	0.334640	1671.731689
6650.321463	0.091128	0.334640	1752.197632
6650.322407	0.091176	0.334640	1838.267334
6650.323312	0.091176	0.334640	1920.781250
6650.324218	0.091146	0.334640	2003.359741
6651.378126	1.213748	0.342152	537.690186
6651.379094	0.618058	0.342152	1135.970215
6651.379992	0.092974	0.342152	1219.460571
6651.380890	0.091080	0.342152	1301.250732
6651.381806	0.091146	0.342152	1384.740723
6651.382721	0.091176	0.342152	1468.166382
6651.383633	0.090963	0.342152	1551.124756
6651.384532	0.091099	0.342152	1633.022461
6651.385464	0.091190	0.342152	1718.011719
6651.386365	0.091198	0.342152	1800.180664
6651.387266	0.091110	0.342152	1882.270386
6651.388153	0.091128	0.342152	1963.100830
6652.431309	1.211451	0.335353	536.672974
6652.432276	0.611418	0.335353	1127.914551
6652.433187	0.092827	0.335353	1212.480103
6652.434082	0.091110	0.335353	1294.023193
6652.434995	0.091176	0.335353	1377.266479
6652.435925	0.091234	0.335353	1462.114258
6652.436835	0.091102	0.335353	1545.017334
6652.437730	0.091113	0.335353	1626.563721
6652.438674	0.091219	0.335353	1712.674927
6652.439566	0.091161	0.335353	1793.990479
6652.440470	0.091040	0.335353	1876.290649
6652.441359	0.091106	0.335353	1957.283813
6653.490638	1.203578	0.348864	523.556396
6653.491568	0.716719	0.348864	1190.104736
6653.492487	0.093417	0.348864	1275.954712
6653.493399	0.090985	0.348864	1358.933105
6653.494289	0.091088	0.348864	1440.001099
6653.495221	0.091179	0.348864	1524.980103
6653.496118	0.091238	0.348864	1606.820435
6653.497018	0.090959	0.348864	1688.683960
6653.497910	0.091139	0.348864	1769.979858
6653.498866	0.091146	0.348864	1857.115723
6653.499779	0.091069	0.348864	1940.261963
6653.500676	0.091058	0.348864	2021.941284
6654.546913	1.224858	0.335470	563.434875
6654.547848	0.649178	0.335470	1170.416748
6654.548736	0.093409	0.335470	1253.364258
6654.549685	0.091128	0.335470	1339.844727
6654.550582	0.091091	0.335470	1421.553589
6654.551469	0.091190	0.335470	1502.439331
6654.552397	0.091110	0.335470	1586.989014
6654.553311	0.091055	0.335470	1670.213013
6654.554213	0.091190	0.335470	1752.466553
6654.555100	0.091135	0.335470	1833.303467
6654.556042	0.091205	0.335470	1919.218384
6654.556947	0.091146	0.335470	2001.705688
6655.603176	1.243253	0.342177	574.382996
6655.604072	0.686071	0.342177	1189.102295
6655.605008	0.093523	0.342177	1276.639771
6655.605921	0.091055	0.342177	1359.772705
6655.606826	0.091084	0.342177	1442.203735
6655.607712	0.091150	0.342177	1522.962524
6655.608660	0.091146	0.342177	1609.369141
6655.609558	0.091077	0.342177	1691.156006
6655.610449	0.091040	0.342177	1772.272705
6655.611379	0.091113	0.342177	1857.008057
6655.612291	0.091183	0.342177	1940.166870
6655.613186	0.091014	0.342177	2021.624756
6656.663000	1.221522	0.335337	552.128052
6656.663903	0.706069	0.335337	1189.708618
6656.664853	0.094109	0.335337	1279.112061
6656.665750	0.091172	0.335337	1360.893188
6656.666654	0.091168	0.335337	1443.309204
6656.667547	0.091157	0.335337	1524.712646
6656.668479	0.091190	0.335337	1609.701904
6656.669381	0.091150	0.335337	1691.919067
6656.670287	0.091172	0.335337	1774.520752
6656.671189	0.091208	0.335337	1856.790771
6656.672110	0.091194	0.335337	1940.780273
6656.673018	0.091113	0.335337	2023.511108
6657.715679	1.233973	0.346866	556.521973
6657.716588	0.694069	0.346866	1187.430420
6657.717478	0.094156	0.346866	1271.229736
6657.718428	0.091187	0.346866	1357.856934
6657.719335	0.091205	0.346866	1440.579712
6657.720225	0.091187	0.346866	1521.735718
6657.721150	0.091121	0.346866	1606.022217
6657.722064	0.091249	0.346866	1689.423584
6657.722971	0.091040	0.346866	1771.996948
6657.723866	0.091154	0.346866	1853.579346
6657.724795	0.091252	0.346866	1938.352905
6657.725698	0.091179	0.346866	2020.687744
6658.779091	1.215418	0.335675	535.999146
6658.779998	0.714445	0.335675	1184.000366
6658.780883	0.094479	0.335675	1267.614014
6658.781825	0.091282	0.335675	1353.601440
6658.782727	0.091139	0.335675	1435.808716
6658.783621	0.091190	0.335675	1517.332764
6658.784542	0.091106	0.335675	1601.241333
6658.785446	0.091227	0.335675	1683.710327
6658.786344	0.091150	0.335675	1765.562988
6658.787234	0.091194	0.335675	1846.725464
6658.788190	0.091212	0.335675	1933.924316
6658.789098	0.091172	0.335675	2016.708374
6659.828184	1.217512	0.346765	534.487854
6659.829115	0.683291	0.346765	1170.631836
6659.830017	0.093560	0.346765	1255.022583
6659.830933	0.091095	0.346765	1338.465576
6659.831856	0.091172	0.346765	1422.617187
6659.832762	0.091040	0.346765	1505.099487
6659.833647	0.091080	0.346765	1585.705566
6659.834583	0.091172	0.346765	1671.042480
6659.835490	0.091099	0.346765	1753.668945
6659.836386	0.091260	0.346765	1835.437744
6659.837274	0.091194	0.346765	1916.417847
6659.838205	0.091208	0.346765	2001.333008
6660.894672	1.203435	0.336891	530.714844
6660.895643	0.610283	0.336891	1123.299805
6660.896551	0.092802	0.336891	1207.563599
6660.897442	0.091135	0.336891	1288.765137
6660.898358	0.091143	0.336891	1372.251709
6660.899286	0.091139	0.336891	1456.828613
6660.900179	0.091044	0.336891	1538.130615
6660.901064	0.091003	0.336891	1618.668701
6660.901997	0.091091	0.336891	1703.656860
6660.902898	0.091110	0.336891	1785.746582
6660.903820	0.091139	0.336891	1869.776611
6660.904720	0.091106	0.336891	1951.771973
6661.942231	1.216728	0.351603	545.094360
6661.943131	0.721798	0.351603	1194.712646
6661.944056	0.093618	0.351603	1281.309448
6661.944943	0.091113	0.351603	1362.126953
6661.945907	0.091069	0.351603	1449.917847
6661.946802	0.091055	0.351603	1531.411743
6661.947717	0.091095	0.351603	1614.763672
6661.948603	0.091040	0.351603	1695.425171
6661.949545	0.091069	0.351603	1781.212524
6661.950467	0.091179	0.351603	1865.279785
6661.951364	0.091139	0.351603	1947.031372
6661.952299	0.091033	0.351603	2032.146973
6663.009735	1.196536	0.336170	518.099915
6663.010677	0.716243	0.336170	1192.800537
6663.011580	0.093464	0.336170	1277.198853
6663.012489	0.090992	0.336170	1359.911011
6663.013382	0.091157	0.336170	1441.314453
6663.014324	0.091110	0.336170	1527.139771
6663.015220	0.091121	0.336170	1608.783813
6663.016118	0.091084	0.336170	1690.577271
6663.017005	0.091187	0.336170	1771.459717
6663.017952	0.091194	0.336170	1857.820312
6663.018857	0.091143	0.336170	1940.304321
6663.019757	0.091187	0.336170	2022.372192
6664.056265	1.197579	0.354036	519.749451
6664.057199	0.714800	0.354036	1187.372559
6664.058115	0.093307	0.354036	1272.841675
6664.059025	0.091106	0.354036	1355.748047
6664.059918	0.091117	0.354036	1437.115479
6664.060859	0.091110	0.354036	1522.849609
6664.061756	0.091106	0.354036	1604.571655
6664.062649	0.091113	0.354036	1685.935791
6664.063536	0.091161	0.354036	1766.795532
6664.064469	0.091187	0.354036	1851.872559
6664.065374	0.091124	0.354036	1934.339966
6664.066271	0.091091	0.354036	2016.048828
6665.125330	1.218146	0.341190	544.511169
6665.126232	0.708746	0.341190	1183.800293
6665.127165	0.094017	0.341190	1271.518433
6665.128074	0.091040	0.341190	1354.273804
6665.128967	0.091106	0.341190	1435.631470
6665.129858	0.091208	0.341190	1516.898193
6665.130800	0.091219	0.341190	1602.826904
6665.131696	0.091099	0.341190	1684.451294
6665.132590	0.091095	0.341190	1765.890137
6665.133477	0.091124	0.341190	1846.717407
6665.134418	0.091252	0.341190	1932.585937
6665.135321	0.091165	0.341190	2014.907471
6666.170369	1.231164	0.355224	603.270569
6666.171290	0.603574	0.355224	1159.162354
6666.172197	0.092699	0.355224	1243.240356
6666.173090	0.090989	0.355224	1324.493286
6666.174027	0.091146	0.355224	1409.897339
6666.174926	0.091040	0.355224	1491.742310
6666.175825	0.091091	0.355224	1573.633423
6666.176714	0.091077	0.355224	1654.600586
6666.177657	0.091179	0.355224	1740.582520
6666.178565	0.091055	0.355224	1823.260132
6666.179462	0.090930	0.355224	1904.824463
6666.180390	0.091150	0.355224	1989.411621
6667.240433	1.239357	0.345480	592.412476
6667.241364	0.608961	0.345480	1159.355347
6667.242265	0.092864	0.345480	1243.025635
6667.243155	0.091084	0.345480	1324.090332
6667.244111	0.091154	0.345480	1411.233154
6667.245015	0.090992	0.345480	1493.490356
6667.245909	0.091205	0.345480	1575.027466
6667.246820	0.091102	0.345480	1658.021606
6667.247732	0.091212	0.345480	1741.207031
6667.248644	0.091080	0.345480	1824.272339
6667.249533	0.091069	0.345480	1905.233032
6667.250460	0.091168	0.345480	1989.745972
6668.284405	1.262582	0.352239	595.938599
6668.285332	0.621771	0.352239	1172.320557
6668.286230	0.093025	0.352239	1255.856934
6668.287119	0.091077	0.352239	1336.824097
6668.288058	0.091095	0.352239	1422.362305
6668.288962	0.091135	0.352239	1504.748535
6668.289851	0.091036	0.352239	1585.679932
6668.290781	0.091157	0.352239	1670.456177
6668.291694	0.091073	0.352239	1753.605835
6668.292596	0.091073	0.352239	1835.753662
6668.293484	0.091128	0.352239	1916.675293
6668.294428	0.091194	0.352239	2002.762329
6669.354489	1.244659	0.342672	599.925842
6669.355403	0.634405	0.342672	1179.772461
6669.356322	0.092853	0.342672	1265.104126
6669.357217	0.091168	0.342672	1346.699707
6669.358176	0.091176	0.342672	1434.137085
6669.359075	0.091102	0.342672	1516.038086
6669.359995	0.091099	0.342672	1599.848877
6669.360884	0.091165	0.342672	1680.894165
6669.361850	0.091194	0.342672	1768.987427
6669.362738	0.091084	0.342672	1849.869995
6669.363630	0.091128	0.342672	1931.156128
6669.364563	0.091157	0.342672	2016.205811
6670.398918	1.196917	0.353460	515.871033
6670.399838	0.718389	0.353460	1176.788574
6670.400774	0.093127	0.353460	1263.955811
6670.401680	0.091058	0.353460	1346.454712
6670.402578	0.091176	0.353460	1428.330322
6670.403509	0.091223	0.353460	1513.259033
6670.404407	0.091216	0.353460	1595.170898
6670.405311	0.091073	0.353460	1677.500854
6670.406194	0.091165	0.353460	1757.999146
6670.407122	0.091139	0.353460	1842.576050
6670.408032	0.091066	0.353460	1925.445801
6670.408929	0.091044	0.353460	2007.112061
6671.468492	1.203226	0.342672	529.419556
6671.469388	0.727764	0.342672	1181.495850
6671.470362	0.092820	0.342672	1271.902344
6671.471271	0.091084	0.342672	1354.697632
6671.472166	0.091110	0.342672	1436.240723
6671.473081	0.091091	0.342672	1519.589233
6671.473993	0.091172	0.342672	1602.738037
6671.474899	0.091044	0.342672	1685.223633
6671.475785	0.091022	0.342672	1765.868896
6671.476720	0.091040	0.342672	1850.991333
6671.477617	0.091146	0.342672	1932.749512
6671.478521	0.091062	0.342672	2015.069580
6672.514002	1.213909	0.354838	536.547668
6672.514907	0.720564	0.354838	1188.657959
6672.515794	0.094523	0.354838	1272.499634
6672.516744	0.091238	0.354838	1359.175537
6672.517649	0.091249	0.354838	1441.755737
6672.518550	0.091106	0.354838	1523.842163
6672.519439	0.091278	0.354838	1604.988403
6672.520375	0.091238	0.354838	1690.386963
6672.521282	0.091194	0.354838	1773.099731
6672.522173	0.091208	0.354838	1854.366455
6672.523107	0.091263	0.354838	1939.606445
6672.524010	0.091329	0.354838	2022.076904
6673.583117	1.249402	0.342656	629.698547
6673.584039	0.590255	0.342656	1173.913818
6673.584936	0.092626	0.342656	1256.999146
6673.585823	0.091176	0.342656	1337.871826
6673.586751	0.091252	0.342656	1422.554077
6673.587656	0.091234	0.342656	1505.120972
6673.588561	0.091234	0.342656	1587.687866
6673.589453	0.091150	0.342656	1668.993530
6673.590402	0.091241	0.342656	1755.581665
6673.591301	0.091124	0.342656	1837.502441
6673.592195	0.091205	0.342656	1919.039551
6673.593131	0.091212	0.342656	2004.414062
6674.628560	1.205614	0.355962	535.292664
6674.629452	0.732268	0.355962	1188.475830
6674.630421	0.093248	0.355962	1278.833374
6674.631325	0.091143	0.355962	1361.226318
6674.632228	0.091113	0.355962	1443.501587
6674.633120	0.091212	0.355962	1524.862793
6674.634061	0.091241	0.355962	1610.720947
6674.634969	0.091256	0.355962	1693.581543
6674.635857	0.091252	0.355962	1774.613770
6674.636786	0.091249	0.355962	1859.383911
6674.637697	0.091212	0.355962	1942.478149
6674.638591	0.091139	0.355962	2023.956299
6675.697177	1.276582	0.344022	665.099243
6675.698094	0.572402	0.344022	1189.992187
6675.699003	0.092227	0.344022	1273.826172
6675.699900	0.091124	0.344022	1355.564697
6675.700842	0.091282	0.344022	1441.552124
6675.701748	0.091198	0.344022	1524.177124
6675.702638	0.091227	0.344022	1605.369019
6675.703566	0.091219	0.344022	1690.020752
6675.704484	0.091132	0.344022	1773.679565
6675.705381	0.091172	0.344022	1855.460693
6675.706269	0.091146	0.344022	1936.398560
6675.707201	0.091260	0.344022	2021.452637
6676.743124	1.222646	0.358185	541.632385
6676.744047	0.680365	0.358185	1169.609253
6676.744956	0.093538	0.358185	1254.634888
6676.745862	0.091216	0.358185	1337.276367
6676.746786	0.091278	0.358185	1421.617310
6676.747695	0.091172	0.358185	1504.492554
6676.748581	0.091208	0.358185	1585.303223
6676.749507	0.091289	0.358185	1669.836914
6676.750406	0.091285	0.358185	1751.902466
6676.751311	0.091088	0.358185	1834.336792
6676.752200	0.091227	0.358185	1915.437378
6676.753151	0.091227	0.358185	2002.194092
6677.811156	1.211514	0.347353	536.700623
6677.812048	0.724153	0.347353	1182.644897
6677.812988	0.093417	0.347353	1270.456665
6677.813903	0.091011	0.347353	1353.731445
6677.814809	0.091190	0.347353	1436.349731
6677.815704	0.091179	0.347353	1517.955078
6677.816652	0.091230	0.347353	1604.441528
6677.817555	0.091154	0.347353	1686.753174
6677.818449	0.091121	0.347353	1768.214966
6677.819393	0.091223	0.347353	1854.329590
6677.820296	0.091260	0.347353	1936.737183
6677.821194	0.091230	0.347353	2018.662109
6678.857675	1.205387	0.358544	531.575684
6678.858566	0.734810	0.358544	1186.291016
6678.859521	0.093208	0.358544	1275.304687
6678.860433	0.091194	0.358544	1358.473511
6678.861330	0.091157	0.358544	1440.241577
6678.862216	0.091146	0.358544	1520.997192
6678.863166	0.091234	0.358544	1607.669556
6678.864071	0.091124	0.358544	1690.136963
6678.864966	0.091132	0.358544	1771.699707
6678.865900	0.091132	0.358544	1856.816650
6678.866803	0.091245	0.358544	1939.210937
6678.867700	0.091014	0.358544	2020.850830
6679.925195	1.199963	0.345697	524.384033
6679.926140	0.651654	0.345697	1140.197144
6679.927047	0.093329	0.345697	1224.846436
6679.927950	0.091106	0.345697	1307.115112
6679.928858	0.091282	0.345697	1389.998901
6679.929786	0.091271	0.345697	1474.698120
6679.930691	0.091124	0.345697	1557.165527
6679.931585	0.091183	0.345697	1638.682983
6679.932523	0.091238	0.345697	1724.264038
6679.933425	0.091198	0.345697	1806.524170
6679.934321	0.091172	0.345697	1888.214111
6679.935204	0.091146	0.345697	1968.696289
6680.973261	1.208317	0.359257	530.451050
6680.974173	0.712884	0.359257	1180.601685
6680.975063	0.094222	0.359257	1264.459595
6680.975995	0.091110	0.359257	1349.373779
6680.976902	0.091150	0.359257	1432.046753
6680.977796	0.091132	0.359257	1513.518433
6680.978683	0.091143	0.359257	1594.361938
6680.979618	0.091172	0.359257	1679.607666
6680.980531	0.091150	0.359257	1762.827515
6680.981431	0.091099	0.359257	1844.816284
6680.982319	0.091245	0.359257	1925.841919
6680.983273	0.091198	0.359257	2012.844360
6682.038237	1.219959	0.347450	555.081116
6682.039138	0.692534	0.347450	1179.054443
6682.040082	0.094069	0.347450	1267.855225
6682.041009	0.091110	0.347450	1352.313843
6682.041931	0.091066	0.347450	1436.276367
6682.042821	0.091179	0.347450	1517.425903
6682.043768	0.091143	0.347450	1603.737915
6682.044681	0.091029	0.347450	1686.847412
6682.045606	0.091187	0.347450	1771.194946
6682.046493	0.091179	0.347450	1852.070923
6682.047448	0.091194	0.347450	1939.161011
6682.048365	0.091172	0.347450	2022.765625
6683.088890	1.257594	0.357170	607.417908
6683.089821	0.596235	0.357170	1162.512939
6683.090723	0.092794	0.357170	1246.213257
6683.091615	0.091187	0.357170	1327.551636
6683.092559	0.091201	0.357170	1413.645508
6683.093466	0.091168	0.357170	1496.335083
6683.094361	0.091201	0.357170	1577.960083
6683.095283	0.091219	0.357170	1662.064453
6683.096216	0.091179	0.357170	1747.134644
6683.097130	0.091113	0.357170	1830.412231
6683.098022	0.091168	0.357170	1911.734253
6683.098955	0.091201	0.357170	1996.824951
6684.151239	1.200970	0.350000	521.221130
6684.152222	0.619918	0.350000	1130.600830
6684.153129	0.092725	0.350000	1214.702026
6684.154036	0.091106	0.350000	1297.335083
6684.154927	0.091110	0.350000	1378.513794
6684.155877	0.091187	0.350000	1465.140991
6684.156782	0.091121	0.350000	1547.605103
6684.157674	0.091113	0.350000	1628.878174
6684.158607	0.091168	0.350000	1713.938110
6684.159510	0.091300	0.350000	1796.382080
6684.160403	0.091143	0.350000	1877.772461
6684.161291	0.091088	0.350000	1958.658325
6685.205516	1.293677	0.358697	646.838379
6685.206426	0.605951	0.358697	1198.253662
6685.207327	0.092981	0.358697	1282.029541
6685.208212	0.091201	0.358697	1362.742554
6685.209152	0.091219	0.358697	1448.488892
6685.210059	0.091117	0.358697	1531.131958
6685.210956	0.091212	0.358697	1612.949219
6685.211896	0.091157	0.358697	1698.636963
6685.212812	0.091161	0.358697	1782.140381
6685.213716	0.091161	0.358697	1864.549805
6685.214606	0.091201	0.358697	1945.718872
6685.215551	0.091201	0.358697	2031.903931
6686.264273	1.211829	0.350443	539.263733
6686.265171	0.719180	0.350443	1185.087158
6686.266121	0.094087	0.350443	1274.469727
6686.267032	0.091121	0.350443	1357.480591
6686.267959	0.091179	0.350443	1442.003662
6686.268846	0.091168	0.350443	1522.869873
6686.269791	0.091208	0.350443	1609.061890
6686.270679	0.091117	0.350443	1689.973755
6686.271568	0.091183	0.350443	1771.035278
6686.272485	0.091241	0.350443	1854.703735
6686.273415	0.091106	0.350443	1939.432251
6686.274314	0.091168	0.350443	2021.392456
6687.321601	1.233270	0.361404	610.468811
6687.322525	0.601355	0.361404	1166.120850
6687.323414	0.092889	0.361404	1248.699585
6687.324331	0.091223	0.361404	1332.351196
6687.325223	0.091234	0.361404	1413.732056
6687.326120	0.091132	0.361404	1495.477051
6687.327067	0.091176	0.361404	1581.820312
6687.327994	0.091084	0.361404	1666.255127
6687.328885	0.091161	0.361404	1747.479492
6687.329812	0.091143	0.361404	1831.968628
6687.330727	0.091179	0.361404	1915.397583
6687.331646	0.091179	0.361404	1999.191284
6688.377290	1.200634	0.351776	522.275635
6688.378238	0.700192	0.351776	1186.057373
6688.379146	0.093417	0.351776	1270.879761
6688.380040	0.091124	0.351776	1352.344849
6688.380927	0.091157	0.351776	1433.201294
6688.381860	0.091216	0.351776	1518.305664
6688.382762	0.091139	0.351776	1600.512939
6688.383667	0.091183	0.351776	1683.033447
6688.384557	0.091198	0.351776	1764.199219
6688.385506	0.091256	0.351776	1850.801270
6688.386411	0.091143	0.351776	1933.285278
6688.387307	0.091227	0.351776	2015.024536
6689.437647	1.216025	0.361122	541.131287
6689.438617	0.617655	0.361122	1140.256592
6689.439521	0.093014	0.361122	1224.341187
6689.440416	0.091183	0.361122	1305.949829
6689.441346	0.091216	0.361122	1390.780518
6689.442263	0.091172	0.361122	1474.385132
6689.443168	0.091099	0.361122	1556.829346
6689.444069	0.091234	0.361122	1639.031250
6689.445004	0.091278	0.361122	1724.376221
6689.445898	0.091252	0.361122	1805.955933
6689.446798	0.091179	0.361122	1888.017212
6689.447682	0.091219	0.361122	1968.655273
6690.489806	1.200699	0.353984	528.307739
6690.490702	0.734169	0.353984	1186.122803
6690.491641	0.093757	0.353984	1274.160889
6690.492549	0.091245	0.353984	1357.011475
6690.493452	0.091187	0.353984	1439.352905
6690.494338	0.091168	0.353984	1520.127930
6690.495283	0.091208	0.353984	1606.319946
6690.496191	0.091154	0.353984	1689.087402
6690.497080	0.091187	0.353984	1770.152222
6690.498007	0.091157	0.353984	1854.655029
6690.498907	0.091315	0.353984	1936.838257
6690.499806	0.091187	0.353984	2018.814941
6691.553250	1.233201	0.360578	566.039124
6691.554151	0.681229	0.360578	1179.826660
6691.555098	0.093812	0.360578	1268.666870
6691.556006	0.091154	0.360578	1351.434326
6691.556907	0.091179	0.360578	1433.586792
6691.557799	0.091205	0.360578	1514.941528
6691.558739	0.091315	0.360578	1600.777344
6691.559636	0.091132	0.360578	1682.522339
6691.560537	0.091198	0.360578	1764.691284
6691.561427	0.091179	0.360578	1845.840820
6691.562367	0.091179	0.360578	1931.549316
6691.563275	0.091249	0.360578	2014.403198
